Unit:(mV)
                     CH1         CH2
Frequency              ? 261.418 kHz
00001              -6.00    -4200.00
00002              -6.00    -4000.00
00003              -2.00    -3800.00
00004              -4.00    -3600.00
00005              -4.00    -3600.00
00006              -8.00    -3400.00
00007              -8.00    -3200.00
00008              -4.00    -2800.00
00009              -4.00    -2800.00
00010              -4.00    -2800.00
00011              -4.00    -2600.00
00012              -6.00    -2400.00
00013              -8.00    -2000.00
00014              -8.00    -2000.00
00015              -8.00    -1800.00
00016              -4.00    -1600.00
00017              -4.00    -1400.00
00018              -4.00    -1200.00
00019              -4.00    -1000.00
00020              -8.00    -1000.00
00021              -8.00     -800.00
00022              -8.00     -600.00
00023              -4.00     -400.00
00024              -2.00     -200.00
00025               0.00        0.00
00026               0.00        0.00
00027              20.00      400.00
00028              14.00      600.00
00029             -16.00     1000.00
00030             -20.00     1000.00
00031               4.00     1000.00
00032              12.00     1200.00
00033              20.00     1600.00
00034             182.00     1600.00
00035             248.00     2000.00
00036            -248.00     2000.00
00037            -248.00     2400.00
00038             -92.00     2200.00
00039             152.00     2400.00
00040             252.00     2800.00
00041             252.00     2800.00
00042            -248.00     2800.00
00043            -212.00     3400.00
00044             252.00     3200.00
00045            -196.00     3800.00
00046            -248.00     3600.00
00047             252.00     3800.00
00048             -36.00     4400.00
00049             -34.00     4000.00
00050             140.00     4600.00
00051            -248.00     5200.00
00052             136.00     4600.00
00053             174.00     5200.00
00054            -208.00     5400.00
00055              86.00     4800.00
00056             -58.00     5600.00
00057             -66.00     6000.00
00058             172.00     5400.00
00059             -48.00     6200.00
00060             -92.00     6200.00
00061             -34.00     6200.00
00062             108.00     6800.00
00063              40.00     6400.00
00064            -164.00     6600.00
00065              86.00     7000.00
00066              -2.00     7000.00
00067             -92.00     7200.00
00068             108.00     7200.00
00069             -52.00     7600.00
00070             -20.00     7600.00
00071              48.00     7800.00
00072             -66.00     8000.00
00073             -12.00     7600.00
00074              24.00     8400.00
00075              24.00     8200.00
00076             -48.00     8000.00
00077             -10.00     8800.00
00078              24.00     8400.00
00079             -56.00     8600.00
00080              44.00     8600.00
00081               4.00     8800.00
00082             -72.00     9000.00
00083              44.00     9200.00
00084               6.00     9400.00
00085             -44.00     9400.00
00086               2.00     9400.00
00087               4.00     9600.00
00088             -10.00     9600.00
00089               0.00     9800.00
00090              -2.00    10000.00
00091             -28.00    10000.00
00092              12.00    10000.00
00093              14.00    10000.00
00094             -40.00    10200.00
00095               6.00    10200.00
00096              12.00    10400.00
00097             -24.00    10400.00
00098               6.00    10400.00
00099              -2.00    10600.00
00100             -34.00    10400.00
00101               6.00    10600.00
00102              16.00    10800.00
00103             -20.00    10800.00
00104             -10.00    10800.00
00105               4.00    10800.00
00106             -18.00    11000.00
00107               0.00    11000.00
00108               6.00    11000.00
00109             -14.00    11200.00
00110              -4.00    11000.00
00111               4.00    11200.00
00112             -16.00    11200.00
00113              -4.00    11200.00
00114               4.00    11200.00
00115             -10.00    11000.00
00116               0.00    11200.00
00117               4.00    11200.00
00118             -16.00    11200.00
00119              -6.00    11200.00
00120               6.00    11000.00
00121              -8.00    11200.00
00122              -4.00    11000.00
00123               4.00    11400.00
00124             -10.00    11200.00
00125              -8.00    11200.00
00126               4.00    11200.00
00127              -4.00    11200.00
00128              -8.00    11200.00
00129               0.00    11000.00
00130              -4.00    11000.00
00131              -4.00    11000.00
00132              -2.00    11000.00
00133              -4.00    11000.00
00134              -4.00    10800.00
00135               6.00    10800.00
00136              -4.00    10800.00
00137              -8.00    10800.00
00138              -2.00    10600.00
00139              -6.00    10600.00
00140              -6.00    10400.00
00141               4.00    10400.00
00142              -4.00    10400.00
00143              -8.00    10400.00
00144              -2.00    10200.00
00145              -4.00    10200.00
00146              -8.00    10200.00
00147              -4.00    10000.00
00148              -4.00    10000.00
00149              -4.00    10000.00
00150              -4.00     9800.00
00151              -6.00     9600.00
00152              -4.00     9600.00
00153              -2.00     9600.00
00154              -4.00     9400.00
00155              -4.00     9200.00
00156              -2.00     9200.00
00157              -4.00     9200.00
00158              -4.00     9000.00
00159              -4.00     8800.00
00160              -4.00     8800.00
00161              -4.00     8600.00
00162              -2.00     8600.00
00163              -2.00     8600.00
00164              -4.00     8400.00
00165              -4.00     8200.00
00166              -4.00     8000.00
00167              -4.00     8000.00
00168               0.00     7600.00
00169               0.00     7600.00
00170              -4.00     7600.00
00171              -4.00     7400.00
00172              -2.00     7200.00
00173              -2.00     7200.00
00174               0.00     7000.00
00175               0.00     6800.00
00176              -4.00     6800.00
00177               0.00     6600.00
00178              -2.00     6400.00
00179              -4.00     6200.00
00180              -2.00     6200.00
00181              -2.00     6000.00
00182               0.00     5600.00
00183              -2.00     5600.00
00184              -4.00     5400.00
00185               0.00     5400.00
00186              -2.00     5200.00
00187               0.00     5000.00
00188               0.00     4800.00
00189               0.00     4800.00
00190               0.00     4600.00
00191               0.00     4400.00
00192              -4.00     4000.00
00193              -2.00     4000.00
00194               0.00     3600.00
00195               0.00     3600.00
00196               0.00     3400.00
00197              -2.00     3200.00
00198               0.00     3200.00
00199               0.00     2800.00
00200              -2.00     2800.00
00201               0.00     2400.00
00202              -2.00     2400.00
00203              -2.00     2000.00
00204              -2.00     2000.00
00205              -2.00     2000.00
00206              -2.00     1600.00
00207               0.00     1600.00
00208               0.00     1200.00
00209               0.00     1200.00
00210              -2.00     1000.00
00211              -2.00      800.00
00212              -2.00      600.00
00213               0.00      400.00
00214               0.00      200.00
00215               0.00        0.00
00216               6.00     -200.00
00217               4.00     -400.00
00218              20.00     -400.00
00219              22.00     -800.00
00220              -4.00    -1000.00
00221             -16.00    -1000.00
00222               6.00    -1200.00
00223              16.00    -1200.00
00224              14.00    -1600.00
00225              54.00    -1600.00
00226             224.00    -1800.00
00227             158.00    -2400.00
00228            -248.00    -2600.00
00229            -248.00    -2600.00
00230              28.00    -2800.00
00231             148.00    -2800.00
00232             252.00    -2800.00
00233             252.00    -3400.00
00234            -248.00    -3400.00
00235            -248.00    -3200.00
00236             252.00    -4400.00
00237             118.00    -3600.00
00238            -248.00    -3800.00
00239              48.00    -4600.00
00240             118.00    -4200.00
00241              82.00    -4400.00
00242               8.00    -5000.00
00243            -210.00    -4600.00
00244              34.00    -5200.00
00245             148.00    -5400.00
00246              20.00    -5000.00
00247             -50.00    -5600.00
00248            -130.00    -5800.00
00249              76.00    -5800.00
00250             156.00    -6000.00
00251             -64.00    -6200.00
00252            -104.00    -6400.00
00253               6.00    -6400.00
00254              92.00    -6800.00
00255              38.00    -6800.00
00256             -68.00    -6800.00
00257             -42.00    -7400.00
00258              32.00    -7200.00
00259              68.00    -7400.00
00260             -18.00    -7400.00
00261             -50.00    -7600.00
00262              40.00    -7800.00
00263              16.00    -8000.00
00264             -10.00    -8200.00
00265              -8.00    -8200.00
00266             -16.00    -8200.00
00267              42.00    -8600.00
00268              26.00    -8800.00
00269             -40.00    -8800.00
00270             -20.00    -9000.00
00271              22.00    -9000.00
00272              22.00    -9200.00
00273               2.00    -9200.00
00274              -8.00    -9200.00
00275             -10.00    -9600.00
00276              10.00    -9600.00
00277              14.00    -9600.00
00278             -20.00    -9600.00
00279              -2.00    -9800.00
00280              22.00   -10000.00
00281               0.00    -9800.00
00282             -10.00   -10200.00
00283              -4.00   -10200.00
00284              -2.00   -10000.00
00285               6.00   -10400.00
00286              10.00   -10400.00
00287              -4.00   -10400.00
00288              -2.00   -10600.00
00289               6.00   -10600.00
00290              -4.00   -10600.00
00291              -4.00   -10800.00
00292               4.00   -10600.00
00293               4.00   -10800.00
00294               6.00   -10800.00
00295               6.00   -10800.00
00296             -12.00   -10800.00
00297              -8.00   -11000.00
00298              12.00   -11000.00
00299               6.00   -11000.00
00300               4.00   -11200.00
00301               4.00   -11200.00
00302             -10.00   -11400.00
00303              -4.00   -11200.00
00304               6.00   -11200.00
00305               2.00   -11200.00
00306              -2.00   -11200.00
00307               4.00   -11200.00
00308               0.00   -11200.00
00309              -4.00   -11200.00
00310               0.00   -11400.00
00311               0.00   -11400.00
00312              -2.00   -11200.00
00313               6.00   -11400.00
00314               4.00   -11400.00
00315              -2.00   -11400.00
00316               0.00   -11200.00
00317              -4.00   -11200.00
00318              -4.00   -11400.00
00319               6.00   -11200.00
00320               6.00   -11200.00
00321              -2.00   -11200.00
00322              -2.00   -11200.00
00323              -4.00   -11200.00
00324              -4.00   -11000.00
00325               0.00   -10800.00
00326               6.00   -10800.00
00327               0.00   -10800.00
00328               0.00   -10800.00
00329              -4.00   -10800.00
00330              -4.00   -10800.00
00331              -4.00   -10600.00
00332              -2.00   -10600.00
00333              -2.00   -10600.00
00334               0.00   -10400.00
00335              -4.00   -10400.00
00336              -8.00   -10400.00
00337              -4.00   -10400.00
00338              -2.00   -10400.00
00339              -2.00   -10200.00
00340               0.00   -10000.00
00341              -2.00    -9800.00
00342              -4.00   -10000.00
00343              -8.00    -9800.00
00344              -4.00    -9600.00
00345              -4.00    -9800.00
00346              -4.00    -9600.00
00347               0.00    -9400.00
00348              -4.00    -9400.00
00349              -8.00    -9200.00
00350              -6.00    -9200.00
00351              -6.00    -9000.00
00352              -2.00    -8800.00
00353              -2.00    -8800.00
00354              -2.00    -8600.00
00355              -4.00    -8400.00
00356              -4.00    -8400.00
00357              -4.00    -8200.00
00358              -4.00    -8000.00
00359              -2.00    -8000.00
00360               0.00    -8000.00
00361              -2.00    -7800.00
00362              -4.00    -7600.00
00363              -8.00    -7400.00
00364              -4.00    -7400.00
00365              -4.00    -7400.00
00366              -2.00    -7200.00
00367              -2.00    -6800.00
00368              -2.00    -6800.00
00369              -4.00    -6600.00
00370              -4.00    -6400.00
00371              -4.00    -6400.00
00372              -2.00    -6200.00
00373               0.00    -6000.00
00374              -2.00    -5800.00
00375              -8.00    -5600.00
00376             -10.00    -5200.00
00377              -2.00    -5200.00
00378              -2.00    -5200.00
00379               0.00    -5000.00
00380              -2.00    -4800.00
00381             -10.00    -4800.00
00382              -8.00    -4400.00
00383               2.00    -4200.00
00384              -4.00    -4200.00
00385              -8.00    -4000.00
00386              -4.00    -3800.00
00387              -8.00    -3600.00
00388              -4.00    -3600.00
00389               0.00    -3200.00
00390              -8.00    -3200.00
00391             -10.00    -2800.00
00392              -2.00    -2600.00
00393              -4.00    -2600.00
00394              -2.00    -2400.00
00395              -4.00    -2400.00
00396              -8.00    -2000.00
00397             -10.00    -1800.00
00398              -8.00    -1800.00
00399              -4.00    -1600.00
00400              -4.00    -1200.00
00401              -2.00    -1200.00
00402              -8.00     -800.00
00403             -10.00     -800.00
00404              -8.00     -400.00
00405              -4.00     -400.00
00406              -4.00     -200.00
00407               0.00        0.00
00408              -2.00      400.00
00409               4.00      400.00
00410              22.00      400.00
00411               0.00      600.00
00412             -20.00      800.00
00413              -8.00     1000.00
00414              12.00     1000.00
00415              10.00     1200.00
00416              70.00     1600.00
00417             252.00     2000.00
00418              52.00     2200.00
00419            -248.00     2200.00
00420            -248.00     2400.00
00421              64.00     2400.00
00422             252.00     2600.00
00423             252.00     2800.00
00424            -248.00     2800.00
00425            -248.00     3200.00
00426             252.00     3400.00
00427             252.00     3600.00
00428            -248.00     3800.00
00429              -4.00     3600.00
00430             252.00     4000.00
00431            -204.00     4400.00
00432             174.00     4000.00
00433            -114.00     4800.00
00434            -196.00     4800.00
00435             252.00     4600.00
00436             -84.00     5600.00
00437             -88.00     5200.00
00438              92.00     5200.00
00439            -146.00     6200.00
00440             100.00     5600.00
00441             100.00     5600.00
00442            -114.00     6400.00
00443             -66.00     5800.00
00444              12.00     6400.00
00445             134.00     6800.00
00446             -96.00     6400.00
00447             -60.00     7000.00
00448             120.00     7000.00
00449            -114.00     7000.00
00450              22.00     7000.00
00451              62.00     7600.00
00452             -84.00     7600.00
00453              52.00     7400.00
00454             -10.00     8000.00
00455             -56.00     7800.00
00456              16.00     8000.00
00457              30.00     8400.00
00458              -4.00     8000.00
00459             -50.00     8400.00
00460              30.00     8600.00
00461             -26.00     8400.00
00462             -20.00     8800.00
00463              62.00     8800.00
00464             -58.00     9000.00
00465             -20.00     8800.00
00466              54.00     9200.00
00467             -34.00     9400.00
00468             -20.00     9200.00
00469              10.00     9600.00
00470              -4.00     9600.00
00471             -10.00     9600.00
00472               6.00    10000.00
00473             -20.00     9800.00
00474             -18.00    10000.00
00475              28.00    10000.00
00476             -18.00    10000.00
00477             -26.00    10200.00
00478              20.00    10200.00
00479             -12.00    10200.00
00480             -12.00    10400.00
00481              12.00    10400.00
00482             -22.00    10600.00
00483             -18.00    10400.00
00484              22.00    10800.00
00485              -2.00    10800.00
00486             -24.00    10800.00
00487               0.00    10800.00
00488              -4.00    11000.00
00489             -12.00    10800.00
00490              10.00    10800.00
00491              -4.00    11000.00
00492             -12.00    11200.00
00493               4.00    11000.00
00494              -8.00    11200.00
00495             -12.00    11000.00
00496               2.00    11200.00
00497              -4.00    11200.00
00498             -10.00    11200.00
00499               6.00    11200.00
00500              -8.00    11200.00
00501             -16.00    11000.00
00502               4.00    11200.00
00503              -2.00    11200.00
00504             -10.00    11200.00
00505               0.00    11200.00
00506              -2.00    11200.00
00507             -12.00    11200.00
00508               0.00    11200.00
00509              -2.00    11200.00
00510             -10.00    11000.00
00511              -2.00    11000.00
00512               0.00    11000.00
00513              -8.00    11000.00
00514              -4.00    11000.00
00515              -4.00    11000.00
00516              -6.00    10800.00
00517               2.00    10800.00
00518               0.00    10800.00
00519              -8.00    10600.00
00520              -4.00    10600.00
00521              -4.00    10800.00
00522              -8.00    10400.00
00523               0.00    10600.00
00524               0.00    10400.00
00525              -6.00    10400.00
00526              -2.00    10400.00
00527              -2.00    10400.00
00528              -8.00    10200.00
00529              -4.00    10000.00
00530              -2.00    10000.00
00531              -4.00    10000.00
00532              -4.00     9800.00
00533              -2.00     9800.00
00534              -4.00     9600.00
00535              -4.00     9600.00
00536              -2.00     9400.00
00537              -4.00     9400.00
00538               0.00     9200.00
00539              -4.00     9200.00
00540              -8.00     9000.00
00541              -4.00     9000.00
00542              -4.00     8600.00
00543              -4.00     8600.00
00544              -2.00     8600.00
00545              -2.00     8600.00
00546              -4.00     8400.00
00547              -4.00     8200.00
00548              -4.00     8000.00
00549              -4.00     8000.00
00550              -2.00     7800.00
00551               0.00     7800.00
00552              -2.00     7600.00
00553              -4.00     7600.00
00554              -4.00     7400.00
00555              -4.00     7200.00
00556              -2.00     7000.00
00557              -2.00     7000.00
00558               0.00     6800.00
00559              -2.00     6800.00
00560               0.00     6400.00
00561              -2.00     6400.00
00562              -4.00     6200.00
00563               0.00     6000.00
00564               0.00     6000.00
00565               0.00     5800.00
00566               0.00     5600.00
00567              -4.00     5400.00
00568              -2.00     5200.00
00569               0.00     5000.00
00570               0.00     4800.00
00571               0.00     4800.00
00572               0.00     4600.00
00573               0.00     4400.00
00574              -2.00     4200.00
00575              -2.00     4000.00
00576              -2.00     3800.00
00577               4.00     3600.00
00578               0.00     3400.00
00579               0.00     3200.00
00580              -2.00     3200.00
00581              -2.00     3000.00
00582              -2.00     2800.00
00583               0.00     2600.00
00584               4.00     2400.00
00585               0.00     2400.00
00586               0.00     2000.00
00587              -2.00     1800.00
00588               0.00     2000.00
00589               0.00     1600.00
00590               4.00     1400.00
00591               0.00     1200.00
00592               0.00     1000.00
00593              -2.00      800.00
00594              -2.00      600.00
00595              -2.00      400.00
00596               0.00      400.00
00597               0.00        0.00
00598               4.00        0.00
00599               4.00     -200.00
00600               8.00     -400.00
00601              24.00     -600.00
00602              12.00     -800.00
00603             -16.00    -1000.00
00604              -8.00    -1200.00
00605              12.00    -1200.00
00606              16.00    -1400.00
00607              20.00    -1600.00
00608             120.00    -1800.00
00609             252.00    -2000.00
00610             -62.00    -2600.00
00611            -248.00    -2600.00
00612            -228.00    -2800.00
00613             150.00    -2800.00
00614             148.00    -2600.00
00615             252.00    -3000.00
00616             -32.00    -3800.00
00617            -248.00    -3000.00
00618             232.00    -3800.00
00619             252.00    -4200.00
00620            -248.00    -3400.00
00621            -228.00    -4400.00
00622             158.00    -4400.00
00623              64.00    -4200.00
00624              94.00    -4800.00
00625            -130.00    -5000.00
00626            -140.00    -4800.00
00627             142.00    -5600.00
00628              86.00    -5200.00
00629             -10.00    -5400.00
00630            -106.00    -5600.00
00631             -62.00    -5800.00
00632             168.00    -5800.00
00633              56.00    -6200.00
00634            -116.00    -6400.00
00635             -52.00    -6400.00
00636              54.00    -6600.00
00637              90.00    -6800.00
00638             -26.00    -6800.00
00639             -72.00    -7000.00
00640              -8.00    -7400.00
00641              60.00    -7200.00
00642              38.00    -7400.00
00643             -58.00    -7600.00
00644              -4.00    -7600.00
00645              44.00    -8000.00
00646              -4.00    -8000.00
00647              -4.00    -8000.00
00648             -20.00    -8200.00
00649               8.00    -8400.00
00650              54.00    -8600.00
00651             -10.00    -8800.00
00652             -38.00    -9000.00
00653               4.00    -8800.00
00654              28.00    -9000.00
00655              12.00    -9200.00
00656              -2.00    -9200.00
00657              -8.00    -9400.00
00658              -2.00    -9400.00
00659              20.00    -9600.00
00660              -2.00    -9600.00
00661             -18.00    -9800.00
00662              14.00   -10000.00
00663              16.00   -10000.00
00664              -8.00   -10000.00
00665              -4.00   -10000.00
00666              -2.00   -10000.00
00667               0.00   -10400.00
00668              12.00   -10400.00
00669               4.00   -10400.00
00670              -8.00   -10600.00
00671               4.00   -10400.00
00672               4.00   -10600.00
00673              -8.00   -10800.00
00674               0.00   -10800.00
00675               4.00   -10800.00
00676               4.00   -11000.00
00677               6.00   -10800.00
00678              -4.00   -11000.00
00679             -12.00   -11200.00
00680               0.00   -11000.00
00681               8.00   -11200.00
00682               0.00   -11200.00
00683               4.00   -11200.00
00684               2.00   -11200.00
00685              -8.00   -11200.00
00686              -2.00   -11400.00
00687               0.00   -11200.00
00688               0.00   -11400.00
00689               6.00   -11400.00
00690               6.00   -11200.00
00691              -4.00   -11400.00
00692              -6.00   -11400.00
00693               0.00   -11400.00
00694               0.00   -11200.00
00695               6.00   -11400.00
00696               4.00   -11200.00
00697              -2.00   -11400.00
00698               0.00   -11200.00
00699               0.00   -11400.00
00700              -4.00   -11200.00
00701               4.00   -11200.00
00702               6.00   -11200.00
00703              -2.00   -11200.00
00704               0.00   -11000.00
00705               0.00   -11200.00
00706              -6.00   -11000.00
00707              -2.00   -11000.00
00708               4.00   -10800.00
00709               4.00   -10800.00
00710               0.00   -10800.00
00711               0.00   -10800.00
00712              -4.00   -10800.00
00713              -6.00   -10600.00
00714               4.00   -10800.00
00715               0.00   -10600.00
00716               4.00   -10400.00
00717               0.00   -10600.00
00718              -4.00   -10600.00
00719              -4.00   -10400.00
00720              -4.00   -10400.00
00721              -2.00   -10200.00
00722              -2.00   -10000.00
00723               0.00   -10000.00
00724              -4.00    -9800.00
00725              -4.00   -10000.00
00726              -4.00    -9800.00
00727              -4.00    -9600.00
00728              -2.00    -9600.00
00729               0.00    -9600.00
00730               0.00    -9600.00
00731              -4.00    -9200.00
00732              -6.00    -9200.00
00733              -6.00    -9000.00
00734              -4.00    -9000.00
00735              -2.00    -8800.00
00736              -2.00    -8800.00
00737              -4.00    -8800.00
00738              -6.00    -8400.00
00739              -8.00    -8200.00
00740              -6.00    -8200.00
00741              -2.00    -8000.00
00742              -2.00    -8000.00
00743              -2.00    -7800.00
00744              -4.00    -7600.00
00745              -8.00    -7600.00
00746              -8.00    -7400.00
00747              -4.00    -7200.00
00748              -2.00    -7200.00
00749              -4.00    -7200.00
00750              -2.00    -6800.00
00751              -4.00    -6800.00
00752              -4.00    -6600.00
00753              -4.00    -6400.00
00754              -4.00    -6000.00
00755              -2.00    -6000.00
00756              -2.00    -6000.00
00757              -4.00    -5800.00
00758              -4.00    -5600.00
00759              -8.00    -5400.00
00760              -6.00    -5400.00
00761              -2.00    -5000.00
00762              -2.00    -4800.00
00763              -2.00    -4800.00
00764              -2.00    -4600.00
00765              -6.00    -4600.00
00766              -8.00    -4200.00
00767              -4.00    -4200.00
00768              -2.00    -3800.00
00769              -2.00    -3600.00
00770              -4.00    -3600.00
00771              -4.00    -3400.00
00772              -6.00    -3200.00
00773              -4.00    -3000.00
00774              -4.00    -2800.00
00775              -4.00    -2600.00
00776              -2.00    -2600.00
00777              -2.00    -2400.00
00778              -4.00    -2200.00
00779              -8.00    -2000.00
00780              -4.00    -1800.00
00781              -4.00    -1600.00
00782              -2.00    -1400.00
00783              -2.00    -1200.00
00784              -4.00    -1000.00
00785              -8.00     -800.00
00786              -4.00     -800.00
00787              -6.00     -400.00
00788              -4.00     -400.00
00789              -2.00     -200.00
00790              -2.00        0.00
00791               0.00      200.00
00792              20.00      400.00
00793              14.00      600.00
00794             -10.00      800.00
00795             -20.00     1000.00
00796               2.00     1000.00
00797              12.00     1200.00
00798              16.00     1400.00
00799             166.00     1600.00
00800             252.00     2000.00
00801            -236.00     2200.00
00802            -248.00     2400.00
00803            -120.00     2200.00
00804             142.00     2400.00
00805             252.00     2800.00
00806             252.00     2800.00
00807            -248.00     2800.00
00808            -248.00     3200.00
00809             252.00     3200.00
00810             -84.00     3800.00
00811            -248.00     3600.00
00812             252.00     3600.00
00813               4.00     4400.00
00814             -64.00     4000.00
00815             160.00     4400.00
00816            -248.00     5200.00
00817             102.00     4600.00
00818             204.00     4800.00
00819            -208.00     5400.00
00820              72.00     4800.00
00821             -36.00     5600.00
00822             -82.00     6000.00
00823             176.00     5200.00
00824             -34.00     6400.00
00825            -104.00     6200.00
00826             -44.00     6000.00
00827              94.00     6800.00
00828              60.00     6600.00
00829            -158.00     6600.00
00830              80.00     7200.00
00831              16.00     7000.00
00832            -106.00     7200.00
00833             104.00     7400.00
00834             -40.00     7600.00
00835             -28.00     7600.00
00836              58.00     7600.00
00837             -60.00     8000.00
00838             -18.00     7600.00
00839              28.00     8400.00
00840              24.00     8400.00
00841             -42.00     8000.00
00842             -16.00     8600.00
00843              28.00     8600.00
00844             -52.00     8800.00
00845              38.00     8800.00
00846              16.00     9000.00
00847             -74.00     9000.00
00848              40.00     9200.00
00849              14.00     9400.00
00850             -44.00     9400.00
00851               2.00     9400.00
00852               6.00     9600.00
00853             -10.00     9600.00
00854              -2.00     9600.00
00855              -4.00     9800.00
00856             -32.00     9600.00
00857              12.00    10000.00
00858              16.00    10000.00
00859             -36.00    10200.00
00860               0.00    10200.00
00861              12.00    10400.00
00862             -26.00    10400.00
00863               6.00    10400.00
00864              -2.00    10400.00
00865             -32.00    10600.00
00866               4.00    10600.00
00867              16.00    10800.00
00868             -20.00    10600.00
00869             -12.00    11000.00
00870               4.00    10800.00
00871             -18.00    11000.00
00872              -4.00    10800.00
00873               6.00    11000.00
00874             -16.00    11000.00
00875              -4.00    11000.00
00876               2.00    11000.00
00877             -16.00    11200.00
00878              -4.00    11200.00
00879               4.00    11200.00
00880             -10.00    11200.00
00881              -2.00    11000.00
00882               4.00    11200.00
00883             -18.00    11200.00
00884              -8.00    11200.00
00885               4.00    11200.00
00886              -6.00    11200.00
00887              -8.00    11200.00
00888               0.00    11200.00
00889             -10.00    11200.00
00890             -10.00    11200.00
00891               4.00    11200.00
00892              -8.00    11200.00
00893              -4.00    11200.00
00894               4.00    11000.00
00895              -4.00    11200.00
00896              -8.00    11000.00
00897              -2.00    11000.00
00898              -8.00    11000.00
00899              -2.00    10800.00
00900               4.00    11000.00
00901              -4.00    10800.00
00902              -6.00    10800.00
00903              -2.00    10800.00
00904              -8.00    10600.00
00905              -4.00    10400.00
00906               4.00    10400.00
00907              -4.00    10400.00
00908              -8.00    10400.00
00909               0.00    10200.00
00910              -4.00    10200.00
00911              -8.00    10200.00
00912              -2.00    10000.00
00913              -2.00    10000.00
00914              -2.00    10000.00
00915               0.00     9800.00
00916              -4.00     9600.00
00917              -4.00     9600.00
00918              -4.00     9600.00
00919              -2.00     9200.00
00920              -2.00     9400.00
00921              -2.00     9400.00
00922              -4.00     9200.00
00923              -4.00     8800.00
00924              -2.00     8800.00
00925              -4.00     8800.00
00926              -4.00     8600.00
00927              -2.00     8600.00
00928              -2.00     8400.00
00929              -6.00     8400.00
00930              -4.00     8200.00
00931              -4.00     8000.00
00932              -4.00     8000.00
00933               0.00     7800.00
00934               0.00     7600.00
00935              -4.00     7600.00
00936              -4.00     7200.00
00937              -2.00     7400.00
00938              -2.00     7200.00
00939              -2.00     7000.00
00940              -2.00     6800.00
00941              -4.00     6800.00
00942               2.00     6400.00
00943              -4.00     6400.00
00944              -8.00     6200.00
00945              -2.00     6000.00
00946               2.00     6000.00
00947              -2.00     5600.00
00948              -2.00     5600.00
00949              -4.00     5400.00
00950               0.00     5200.00
00951              -2.00     5200.00
00952               2.00     5000.00
00953              -2.00     4800.00
00954              -2.00     4800.00
00955               0.00     4600.00
00956              -2.00     4400.00
00957              -4.00     4200.00
00958               0.00     4000.00
00959               4.00     3800.00
00960               4.00     3600.00
00961               0.00     3600.00
00962              -2.00     3200.00
00963              -2.00     3200.00
00964              -4.00     2800.00
00965              -4.00     2800.00
00966               0.00     2600.00
00967               4.00     2400.00
00968               4.00     2200.00
00969               6.00     2200.00
00970               6.00     1800.00
00971               4.00     1600.00
00972               4.00     1400.00
00973              -2.00     1200.00
00974              -4.00     1000.00
00975              -4.00     1000.00
00976             -10.00      800.00
00977              -4.00      600.00
00978               0.00      600.00
00979               6.00      200.00
00980              10.00        0.00
00981              14.00     -200.00
00982              10.00     -400.00
00983              18.00     -400.00
00984              16.00     -800.00
00985             -10.00     -800.00
00986             -20.00    -1000.00
00987               2.00    -1200.00
00988              20.00    -1400.00
00989              16.00    -1600.00
00990              52.00    -1600.00
00991             216.00    -1800.00
00992             182.00    -2400.00
00993            -248.00    -2600.00
00994            -248.00    -2800.00
00995              -2.00    -2800.00
00996             148.00    -2600.00
00997             246.00    -2600.00
00998             252.00    -3600.00
00999            -248.00    -3400.00
01000            -248.00    -3000.00
01001             252.00    -4200.00
01002             190.00    -3600.00
01003            -248.00    -3800.00
01004              22.00    -4800.00
01005             126.00    -4000.00
01006              74.00    -4400.00
01007              20.00    -5000.00
01008            -214.00    -4600.00
01009              12.00    -5000.00
01010             152.00    -5400.00
01011              28.00    -5000.00
01012             -44.00    -5600.00
01013            -130.00    -5800.00
01014              62.00    -5800.00
01015             164.00    -6000.00
01016             -56.00    -6000.00
01017            -108.00    -6400.00
01018              -2.00    -6400.00
01019              86.00    -6800.00
01020              48.00    -6800.00
01021             -68.00    -6800.00
01022             -44.00    -7200.00
01023              28.00    -7200.00
01024              62.00    -7400.00
01025             -16.00    -7600.00
01026             -52.00    -7600.00
01027              32.00    -8000.00
01028              22.00    -8000.00
01029              -8.00    -8000.00
01030              -4.00    -8200.00
01031             -20.00    -8200.00
01032              38.00    -8400.00
01033              30.00    -8600.00
01034             -36.00    -8800.00
01035             -24.00    -9000.00
01036              22.00    -8800.00
01037              26.00    -9200.00
01038               6.00    -9200.00
01039              -4.00    -9200.00
01040             -10.00    -9400.00
01041               6.00    -9600.00
01042              14.00    -9600.00
01043             -18.00    -9600.00
01044              -4.00    -9800.00
01045              24.00    -9800.00
01046               4.00   -10000.00
01047              -4.00   -10000.00
01048               0.00   -10200.00
01049              -2.00   -10000.00
01050               6.00   -10400.00
01051              10.00   -10400.00
01052              -4.00   -10600.00
01053              -4.00   -10400.00
01054               6.00   -10600.00
01055              -4.00   -10800.00
01056              -8.00   -10800.00
01057               4.00   -10600.00
01058               4.00   -10800.00
01059               6.00   -10800.00
01060               4.00   -10800.00
01061             -10.00   -11000.00
01062              -8.00   -11200.00
01063               6.00   -11000.00
01064               0.00   -11000.00
01065               0.00   -11200.00
01066               4.00   -11200.00
01067              -4.00   -11200.00
01068              -4.00   -11200.00
01069               0.00   -11200.00
01070              -2.00   -11200.00
01071               0.00   -11400.00
01072               6.00   -11200.00
01073              -2.00   -11400.00
01074             -10.00   -11400.00
01075              -4.00   -11200.00
01076               0.00   -11400.00
01077               4.00   -11200.00
01078               6.00   -11200.00
01079               0.00   -11200.00
01080              -4.00   -11200.00
01081              -2.00   -11400.00
01082              -6.00   -11200.00
01083              -4.00   -11200.00
01084               4.00   -11200.00
01085               4.00   -11200.00
01086              -2.00   -11200.00
01087              -2.00   -11200.00
01088              -4.00   -11200.00
01089              -4.00   -11200.00
01090               0.00   -11200.00
01091               4.00   -11000.00
01092               0.00   -11000.00
01093               0.00   -10800.00
01094              -4.00   -10800.00
01095              -4.00   -10800.00
01096              -2.00   -10600.00
01097               0.00   -10600.00
01098               2.00   -10600.00
01099               2.00   -10400.00
01100              -2.00   -10400.00
01101              -4.00   -10600.00
01102              -4.00   -10400.00
01103               0.00   -10400.00
01104              -2.00   -10000.00
01105               0.00   -10200.00
01106               0.00   -10000.00
01107              -4.00   -10000.00
01108              -4.00    -9800.00
01109              -2.00    -9800.00
01110              -2.00    -9600.00
01111               0.00    -9600.00
01112               2.00    -9400.00
01113              -4.00    -9200.00
01114              -4.00    -9200.00
01115              -6.00    -9200.00
01116              -4.00    -9000.00
01117              -2.00    -8800.00
01118               0.00    -8800.00
01119              -2.00    -8800.00
01120              -4.00    -8400.00
01121              -4.00    -8400.00
01122              -8.00    -8200.00
01123              -4.00    -8200.00
01124               0.00    -8000.00
01125              -2.00    -8000.00
01126              -2.00    -7800.00
01127              -8.00    -7600.00
01128              -8.00    -7400.00
01129              -8.00    -7400.00
01130              -4.00    -7400.00
01131              -4.00    -7000.00
01132              -4.00    -6800.00
01133              -4.00    -6800.00
01134              -8.00    -6600.00
01135              -8.00    -6600.00
01136              -4.00    -6400.00
01137              -4.00    -6000.00
01138              -2.00    -6000.00
01139              -2.00    -5800.00
01140              -4.00    -5600.00
01141              -8.00    -5400.00
01142              -4.00    -5200.00
01143              -4.00    -5200.00
01144              -2.00    -5000.00
01145              -2.00    -5000.00
01146              -4.00    -4800.00
01147              -4.00    -4600.00
01148              -8.00    -4400.00
01149              -8.00    -4200.00
01150              -4.00    -4000.00
01151              -2.00    -3800.00
01152              -4.00    -3600.00
01153              -4.00    -3400.00
01154              -6.00    -3400.00
01155              -6.00    -3200.00
01156              -4.00    -2800.00
01157              -4.00    -2800.00
01158              -4.00    -2600.00
01159              -2.00    -2400.00
01160              -4.00    -2200.00
01161              -6.00    -2000.00
01162              -8.00    -1800.00
01163              -4.00    -1600.00
01164              -2.00    -1600.00
01165              -4.00    -1200.00
01166              -4.00    -1200.00
01167              -6.00    -1000.00
01168              -8.00     -800.00
01169              -4.00     -600.00
01170              -4.00     -400.00
01171              -2.00     -200.00
01172               0.00     -200.00
01173               0.00        0.00
01174               4.00      400.00
01175              26.00      400.00
01176               4.00      600.00
01177             -20.00     1000.00
01178              -8.00     1000.00
01179               8.00     1200.00
01180              12.00     1200.00
01181              60.00     1400.00
01182             252.00     2000.00
01183              86.00     2000.00
01184            -248.00     2200.00
01185            -248.00     2200.00
01186              52.00     2200.00
01187             252.00     2400.00
01188             252.00     2800.00
01189            -208.00     2800.00
01190            -248.00     3000.00
01191             252.00     3200.00
01192             252.00     3600.00
01193            -248.00     3800.00
01194             -80.00     3600.00
01195             252.00     4000.00
01196            -200.00     4600.00
01197             156.00     4000.00
01198             -80.00     4800.00
01199            -232.00     4800.00
01200             252.00     4600.00
01201             -56.00     5400.00
01202            -112.00     5200.00
01203             100.00     5000.00
01204            -146.00     6200.00
01205              78.00     5600.00
01206             114.00     5600.00
01207            -108.00     6400.00
01208             -72.00     5800.00
01209               0.00     6400.00
01210             134.00     6800.00
01211             -82.00     6400.00
01212             -82.00     7000.00
01213             126.00     6800.00
01214            -106.00     7000.00
01215               4.00     7400.00
01216              76.00     7600.00
01217             -90.00     7600.00
01218              44.00     7400.00
01219              -2.00     8000.00
01220             -60.00     7800.00
01221              12.00     7800.00
01222              30.00     8400.00
01223               0.00     8200.00
01224             -52.00     8400.00
01225              26.00     8800.00
01226             -18.00     8600.00
01227             -28.00     8800.00
01228              62.00     8800.00
01229             -52.00     9200.00
01230             -32.00     9200.00
01231              56.00     9400.00
01232             -30.00     9400.00
01233             -24.00     9400.00
01234              12.00     9600.00
01235              -2.00     9600.00
01236              -8.00     9600.00
01237               4.00    10000.00
01238             -18.00    10000.00
01239             -20.00    10000.00
01240              26.00    10000.00
01241             -12.00    10000.00
01242             -28.00    10200.00
01243              22.00    10400.00
01244             -12.00    10400.00
01245             -16.00    10400.00
01246              12.00    10400.00
01247             -20.00    10400.00
01248             -20.00    10400.00
01249              20.00    10800.00
01250               0.00    10800.00
01251             -24.00    10600.00
01252              -2.00    11000.00
01253              -4.00    10800.00
01254             -16.00    10800.00
01255               6.00    11000.00
01256              -4.00    11000.00
01257             -18.00    11200.00
01258               0.00    11000.00
01259              -8.00    11200.00
01260             -16.00    11200.00
01261               0.00    11000.00
01262              -4.00    11200.00
01263             -10.00    11200.00
01264               6.00    11200.00
01265             -10.00    11200.00
01266             -20.00    11200.00
01267               4.00    11200.00
01268               0.00    11200.00
01269              -8.00    11200.00
01270               0.00    11200.00
01271             -10.00    11200.00
01272             -16.00    11200.00
01273               4.00    11200.00
01274               4.00    11200.00
01275             -10.00    11000.00
01276              -2.00    11000.00
01277              -4.00    11200.00
01278              -8.00    11000.00
01279               0.00    11000.00
01280              -4.00    11000.00
01281             -10.00    11000.00
01282              -2.00    10800.00
01283               0.00    10800.00
01284              -6.00    10800.00
01285               0.00    10600.00
01286              -4.00    10800.00
01287              -8.00    10600.00
01288               0.00    10400.00
01289               0.00    10400.00
01290              -8.00    10400.00
01291              -2.00    10400.00
01292              -2.00    10200.00
01293              -8.00    10200.00
01294              -4.00    10000.00
01295               0.00    10000.00
01296              -2.00    10000.00
01297               0.00    10000.00
01298              -2.00     9600.00
01299              -8.00     9600.00
01300              -6.00     9600.00
01301              -2.00     9400.00
01302              -2.00     9400.00
01303               2.00     9200.00
01304              -2.00     9200.00
01305              -4.00     8800.00
01306              -2.00     9000.00
01307              -2.00     8800.00
01308              -4.00     8600.00
01309              -2.00     8600.00
01310               0.00     8600.00
01311              -4.00     8400.00
01312              -4.00     8400.00
01313              -2.00     8000.00
01314              -4.00     8000.00
01315              -4.00     7800.00
01316              -2.00     7600.00
01317              -2.00     7600.00
01318              -4.00     7600.00
01319              -2.00     7400.00
01320              -4.00     7200.00
01321              -2.00     7000.00
01322               0.00     7000.00
01323              -2.00     6800.00
01324              -2.00     6800.00
01325               0.00     6400.00
01326              -4.00     6400.00
01327              -4.00     6200.00
01328               0.00     6000.00
01329              -2.00     5800.00
01330              -2.00     5600.00
01331              -4.00     5600.00
01332              -2.00     5400.00
01333              -2.00     5200.00
01334              -2.00     5200.00
01335              -2.00     4800.00
01336               0.00     4800.00
01337              -2.00     4600.00
01338              -4.00     4400.00
01339              -2.00     4000.00
01340              -2.00     4000.00
01341              -2.00     3800.00
01342               0.00     3800.00
01343               2.00     3600.00
01344               0.00     3400.00
01345              -2.00     3200.00
01346              -2.00     3000.00
01347              -2.00     2800.00
01348               2.00     2800.00
01349               4.00     2400.00
01350               0.00     2400.00
01351              -2.00     2000.00
01352               0.00     2000.00
01353               2.00     2000.00
01354               0.00     1600.00
01355               0.00     1400.00
01356               0.00     1400.00
01357               0.00     1000.00
01358               0.00     1000.00
01359               0.00      600.00
01360               0.00      600.00
01361               0.00      200.00
01362               0.00        0.00
01363               4.00        0.00
01364               4.00     -200.00
01365               8.00     -400.00
01366              24.00     -600.00
01367              14.00     -800.00
01368             -10.00     -800.00
01369              -8.00    -1000.00
01370              14.00    -1200.00
01371              16.00    -1200.00
01372              16.00    -1600.00
01373             114.00    -1600.00
01374             252.00    -2000.00
01375             -28.00    -2600.00
01376            -248.00    -2600.00
01377            -248.00    -2800.00
01378             140.00    -2800.00
01379             142.00    -2600.00
01380             252.00    -3000.00
01381              28.00    -3600.00
01382            -248.00    -3200.00
01383             158.00    -3600.00
01384             252.00    -4200.00
01385            -248.00    -3400.00
01386            -248.00    -4400.00
01387             152.00    -4400.00
01388              66.00    -4000.00
01389              96.00    -4800.00
01390            -114.00    -4800.00
01391            -154.00    -4600.00
01392             132.00    -5400.00
01393              94.00    -5200.00
01394              -8.00    -5400.00
01395            -100.00    -5600.00
01396             -76.00    -5600.00
01397             156.00    -6000.00
01398              70.00    -6200.00
01399            -116.00    -6400.00
01400             -64.00    -6400.00
01401              48.00    -6600.00
01402              92.00    -7000.00
01403             -18.00    -7000.00
01404             -74.00    -7000.00
01405             -12.00    -7200.00
01406              56.00    -7200.00
01407              46.00    -7600.00
01408             -56.00    -7600.00
01409             -16.00    -7600.00
01410              44.00    -8000.00
01411              -4.00    -8000.00
01412              -6.00    -8200.00
01413             -18.00    -8200.00
01414               2.00    -8400.00
01415              52.00    -8400.00
01416              -4.00    -8400.00
01417             -40.00    -8800.00
01418               0.00    -9000.00
01419              28.00    -9000.00
01420              14.00    -9200.00
01421              -4.00    -9200.00
01422              -8.00    -9400.00
01423              -2.00    -9600.00
01424              18.00    -9600.00
01425               0.00    -9800.00
01426             -18.00    -9600.00
01427              12.00    -9800.00
01428              18.00   -10000.00
01429              -4.00   -10000.00
01430              -4.00   -10000.00
01431              -4.00   -10200.00
01432               0.00   -10400.00
01433              12.00   -10400.00
01434               6.00   -10200.00
01435              -6.00   -10400.00
01436               4.00   -10600.00
01437               8.00   -10800.00
01438             -10.00   -10600.00
01439               0.00   -10800.00
01440               6.00   -10800.00
01441               6.00   -10800.00
01442               6.00   -10800.00
01443              -2.00   -10800.00
01444             -12.00   -11000.00
01445               0.00   -11000.00
01446               6.00   -11000.00
01447              -2.00   -11200.00
01448               4.00   -11000.00
01449               2.00   -11200.00
01450              -8.00   -11200.00
01451              -2.00   -11200.00
01452               4.00   -11200.00
01453              -2.00   -11400.00
01454               4.00   -11400.00
01455               4.00   -11200.00
01456              -2.00   -11400.00
01457              -2.00   -11400.00
01458              -2.00   -11400.00
01459              -4.00   -11400.00
01460               0.00   -11400.00
01461               4.00   -11200.00
01462               0.00   -11200.00
01463               0.00   -11200.00
01464              -8.00   -11200.00
01465              -4.00   -11200.00
01466               2.00   -11200.00
01467               6.00   -11200.00
01468               0.00   -11200.00
01469              -2.00   -11200.00
01470              -4.00   -11200.00
01471              -6.00   -11200.00
01472              -2.00   -11000.00
01473               4.00   -11200.00
01474               0.00   -10800.00
01475              -2.00   -11000.00
01476              -4.00   -10800.00
01477              -6.00   -10800.00
01478              -2.00   -10600.00
01479               0.00   -10600.00
01480               0.00   -10600.00
01481               4.00   -10400.00
01482               0.00   -10600.00
01483              -4.00   -10400.00
01484              -8.00   -10400.00
01485              -2.00   -10400.00
01486              -2.00   -10200.00
01487              -2.00   -10000.00
01488               2.00   -10000.00
01489               0.00    -9800.00
01490              -8.00    -9800.00
01491              -4.00    -9800.00
01492              -2.00    -9600.00
01493               4.00    -9600.00
01494               0.00    -9200.00
01495               0.00    -9400.00
01496              -4.00    -9200.00
01497              -4.00    -9200.00
01498              -4.00    -9000.00
01499               0.00    -9000.00
01500               0.00    -8800.00
01501               0.00    -8800.00
01502              -2.00    -8600.00
01503              -2.00    -8400.00
01504              -6.00    -8400.00
01505              -4.00    -8200.00
01506              -2.00    -8000.00
01507              -2.00    -8000.00
01508               0.00    -7800.00
01509              -4.00    -7600.00
01510              -4.00    -7400.00
01511             -10.00    -7400.00
01512              -4.00    -7400.00
01513              -2.00    -7200.00
01514              -2.00    -7000.00
01515              -2.00    -6800.00
01516              -4.00    -6600.00
01517              -8.00    -6600.00
01518              -8.00    -6400.00
01519              -4.00    -6400.00
01520              -2.00    -6000.00
01521              -4.00    -5800.00
01522              -4.00    -5800.00
01523              -8.00    -5600.00
01524              -8.00    -5400.00
01525              -8.00    -5200.00
01526              -4.00    -5200.00
01527              -4.00    -4800.00
01528              -4.00    -4800.00
01529              -4.00    -4800.00
01530              -8.00    -4400.00
01531              -8.00    -4400.00
01532              -4.00    -4000.00
01533              -4.00    -4000.00
01534              -4.00    -3600.00
01535              -4.00    -3600.00
01536              -4.00    -3200.00
01537              -8.00    -3400.00
01538              -6.00    -3000.00
01539              -4.00    -2800.00
01540              -4.00    -2600.00
01541              -4.00    -2600.00
01542              -4.00    -2400.00
01543              -6.00    -2000.00
01544             -10.00    -2000.00
01545              -4.00    -1800.00
01546              -4.00    -1400.00
01547              -4.00    -1600.00
01548              -4.00    -1200.00
01549              -6.00    -1200.00
01550              -8.00    -1000.00
01551              -8.00     -800.00
01552              -6.00     -400.00
01553              -4.00     -400.00
01554              -2.00     -200.00
01555              -2.00        0.00
01556               0.00        0.00
01557              16.00      400.00
01558              16.00      600.00
01559              -8.00      800.00
01560             -20.00     1000.00
01561               2.00     1000.00
01562              14.00     1200.00
01563              16.00     1400.00
01564             152.00     1600.00
01565             252.00     2000.00
01566            -200.00     2200.00
01567            -248.00     2400.00
01568            -148.00     2400.00
01569             132.00     2400.00
01570             252.00     2800.00
01571             252.00     3000.00
01572            -248.00     2800.00
01573            -248.00     3600.00
01574             252.00     3200.00
01575              30.00     3800.00
01576            -248.00     3800.00
01577             252.00     3800.00
01578              50.00     4400.00
01579             -96.00     4000.00
01580             176.00     4400.00
01581            -248.00     5000.00
01582              60.00     4600.00
01583             230.00     4800.00
01584            -210.00     5600.00
01585              54.00     5000.00
01586             -18.00     5600.00
01587            -100.00     6000.00
01588             174.00     5400.00
01589             -18.00     6200.00
01590            -106.00     6200.00
01591             -50.00     6000.00
01592              80.00     6800.00
01593              72.00     6400.00
01594            -162.00     6400.00
01595              62.00     7200.00
01596              36.00     7000.00
01597            -118.00     7200.00
01598              96.00     7400.00
01599             -26.00     7600.00
01600             -42.00     7600.00
01601              62.00     7800.00
01602             -58.00     8000.00
01603             -24.00     7800.00
01604              24.00     8200.00
01605              26.00     8400.00
01606             -36.00     8000.00
01607             -26.00     8600.00
01608              30.00     8600.00
01609             -52.00     8800.00
01610              30.00     8800.00
01611              24.00     8800.00
01612             -76.00     9200.00
01613              32.00     9200.00
01614              20.00     9400.00
01615             -42.00     9400.00
01616              -2.00     9600.00
01617               8.00     9600.00
01618              -8.00     9400.00
01619              -2.00     9800.00
01620               0.00    10000.00
01621             -26.00    10000.00
01622               6.00    10000.00
01623              20.00    10000.00
01624             -34.00    10200.00
01625              -2.00    10200.00
01626              14.00    10400.00
01627             -24.00    10400.00
01628               6.00    10400.00
01629               4.00    10600.00
01630             -28.00    10400.00
01631               2.00    10600.00
01632              22.00    10800.00
01633             -16.00    10800.00
01634             -16.00    10800.00
01635               4.00    11000.00
01636             -12.00    10800.00
01637              -4.00    11000.00
01638               8.00    11000.00
01639             -10.00    11000.00
01640             -10.00    11000.00
01641               4.00    11200.00
01642             -12.00    11000.00
01643              -8.00    11000.00
01644               4.00    11200.00
01645              -8.00    11200.00
01646              -4.00    11000.00
01647               6.00    11200.00
01648             -16.00    11200.00
01649             -10.00    11000.00
01650               4.00    11200.00
01651              -8.00    11200.00
01652              -4.00    11200.00
01653               4.00    11200.00
01654             -10.00    11200.00
01655             -12.00    11200.00
01656               0.00    11200.00
01657              -4.00    11000.00
01658              -8.00    11200.00
01659               0.00    11000.00
01660              -4.00    11000.00
01661              -8.00    11000.00
01662              -4.00    11000.00
01663              -4.00    11000.00
01664              -4.00    10800.00
01665               4.00    10800.00
01666              -2.00    10800.00
01667              -4.00    10800.00
01668              -2.00    10800.00
01669              -6.00    10800.00
01670              -8.00    10400.00
01671               4.00    10400.00
01672              -4.00    10400.00
01673              -8.00    10400.00
01674               0.00    10400.00
01675              -4.00    10200.00
01676              -8.00    10200.00
01677               0.00    10000.00
01678               0.00    10000.00
01679              -2.00    10000.00
01680              -2.00    10000.00
01681              -2.00     9800.00
01682              -4.00     9600.00
01683              -2.00     9600.00
01684               0.00     9400.00
01685               0.00     9200.00
01686               0.00     9200.00
01687              -4.00     9200.00
01688              -4.00     9000.00
01689              -2.00     9000.00
01690              -4.00     8800.00
01691              -2.00     8600.00
01692               0.00     8400.00
01693               0.00     8400.00
01694              -4.00     8400.00
01695              -4.00     8200.00
01696              -2.00     8000.00
01697              -2.00     8000.00
01698               0.00     7800.00
01699               4.00     7800.00
01700              -4.00     7600.00
01701              -2.00     7600.00
01702              -4.00     7400.00
01703              -2.00     7200.00
01704               0.00     7000.00
01705               0.00     6800.00
01706              -2.00     6800.00
01707              -2.00     6600.00
01708              -4.00     6400.00
01709              -4.00     6400.00
01710              -4.00     6200.00
01711               0.00     6000.00
01712              -4.00     5800.00
01713              -2.00     5600.00
01714              -4.00     5400.00
01715              -2.00     5400.00
01716              -4.00     5200.00
01717               0.00     5000.00
01718              -2.00     4800.00
01719              -2.00     4800.00
01720              -2.00     4600.00
01721              -4.00     4200.00
01722              -4.00     4200.00
01723              -4.00     4000.00
01724              -2.00     3800.00
01725              -2.00     3600.00
01726              -2.00     3600.00
01727              -4.00     3200.00
01728              -2.00     3200.00
01729              -2.00     2800.00
01730              -2.00     2800.00
01731               2.00     2400.00
01732               4.00     2400.00
01733               0.00     2200.00
01734              -2.00     2000.00
01735               0.00     2000.00
01736              -2.00     1600.00
01737               0.00     1400.00
01738               0.00     1400.00
01739               2.00     1200.00
01740               0.00     1000.00
01741               0.00      800.00
01742               0.00      600.00
01743               0.00      600.00
01744               0.00      200.00
01745               4.00        0.00
01746               6.00     -200.00
01747               6.00     -200.00
01748              18.00     -600.00
01749              24.00     -800.00
01750               0.00     -800.00
01751             -14.00    -1000.00
01752               4.00    -1200.00
01753              20.00    -1400.00
01754              14.00    -1400.00
01755              42.00    -1600.00
01756             202.00    -1800.00
01757             200.00    -2400.00
01758            -248.00    -2600.00
01759            -248.00    -2600.00
01760             -24.00    -3000.00
01761             154.00    -2600.00
01762             230.00    -2600.00
01763             252.00    -3400.00
01764            -248.00    -3600.00
01765            -248.00    -3000.00
01766             252.00    -4200.00
01767             252.00    -3800.00
01768            -248.00    -3600.00
01769             -10.00    -4800.00
01770             134.00    -4200.00
01771              72.00    -4400.00
01772              38.00    -5200.00
01773            -208.00    -4400.00
01774              -8.00    -5000.00
01775             156.00    -5400.00
01776              30.00    -5200.00
01777             -36.00    -5600.00
01778            -132.00    -5600.00
01779              38.00    -5800.00
01780             170.00    -6000.00
01781             -44.00    -6000.00
01782            -114.00    -6400.00
01783              -8.00    -6400.00
01784              84.00    -6800.00
01785              54.00    -7000.00
01786             -64.00    -6800.00
01787             -50.00    -7400.00
01788              22.00    -7200.00
01789              64.00    -7400.00
01790              -4.00    -7600.00
01791             -60.00    -7400.00
01792              30.00    -8000.00
01793              22.00    -8000.00
01794             -10.00    -8000.00
01795              -8.00    -8200.00
01796             -18.00    -8200.00
01797              32.00    -8400.00
01798              36.00    -8600.00
01799             -36.00    -8800.00
01800             -26.00    -9000.00
01801              16.00    -9000.00
01802              24.00    -9200.00
01803               4.00    -9200.00
01804              -8.00    -9200.00
01805             -10.00    -9400.00
01806               6.00    -9600.00
01807              20.00    -9600.00
01808             -14.00    -9600.00
01809              -8.00    -9800.00
01810              22.00    -9800.00
01811               4.00    -9800.00
01812             -10.00   -10000.00
01813              -2.00   -10000.00
01814              -2.00   -10000.00
01815               6.00   -10400.00
01816              12.00   -10400.00
01817              -2.00   -10400.00
01818              -4.00   -10600.00
01819               8.00   -10600.00
01820              -2.00   -10600.00
01821              -4.00   -10800.00
01822               4.00   -10600.00
01823               8.00   -10800.00
01824               6.00   -10800.00
01825               6.00   -11000.00
01826             -10.00   -10800.00
01827              -8.00   -11000.00
01828               8.00   -11000.00
01829               6.00   -11200.00
01830               0.00   -11200.00
01831               6.00   -11000.00
01832              -2.00   -11200.00
01833              -8.00   -11200.00
01834               0.00   -11200.00
01835               4.00   -11200.00
01836               0.00   -11400.00
01837               6.00   -11200.00
01838               4.00   -11400.00
01839              -8.00   -11400.00
01840              -2.00   -11200.00
01841               0.00   -11400.00
01842               0.00   -11400.00
01843               6.00   -11400.00
01844               4.00   -11400.00
01845              -4.00   -11400.00
01846              -2.00   -11200.00
01847              -4.00   -11400.00
01848              -2.00   -11200.00
01849               4.00   -11200.00
01850               4.00   -11000.00
01851              -2.00   -11200.00
01852              -2.00   -11200.00
01853              -4.00   -11200.00
01854              -4.00   -11200.00
01855               0.00   -11000.00
01856               4.00   -10800.00
01857               0.00   -10800.00
01858              -2.00   -10800.00
01859              -4.00   -10800.00
01860              -4.00   -10800.00
01861              -4.00   -10600.00
01862               0.00   -10600.00
01863               0.00   -10600.00
01864               4.00   -10600.00
01865              -2.00   -10400.00
01866              -4.00   -10400.00
01867              -4.00   -10400.00
01868              -2.00   -10400.00
01869              -2.00   -10200.00
01870               4.00   -10000.00
01871               0.00   -10000.00
01872              -4.00   -10000.00
01873              -4.00    -9800.00
01874              -4.00    -9600.00
01875              -4.00    -9600.00
01876               2.00    -9400.00
01877               4.00    -9600.00
01878              -2.00    -9400.00
01879              -4.00    -9200.00
01880              -4.00    -9200.00
01881              -4.00    -9000.00
01882               0.00    -8800.00
01883               0.00    -8800.00
01884              -2.00    -8400.00
01885              -4.00    -8600.00
01886              -4.00    -8400.00
01887              -6.00    -8200.00
01888              -4.00    -8000.00
01889              -2.00    -8000.00
01890               0.00    -8000.00
01891               0.00    -7800.00
01892              -4.00    -7600.00
01893              -4.00    -7400.00
01894              -4.00    -7200.00
01895              -4.00    -7200.00
01896              -4.00    -7200.00
01897              -4.00    -6800.00
01898              -6.00    -6800.00
01899              -8.00    -6800.00
01900              -8.00    -6400.00
01901              -8.00    -6400.00
01902              -2.00    -6000.00
01903              -4.00    -6000.00
01904              -4.00    -5800.00
01905              -4.00    -5800.00
01906              -8.00    -5400.00
01907              -8.00    -5200.00
01908              -8.00    -5200.00
01909              -4.00    -4800.00
01910              -4.00    -4800.00
01911              -2.00    -4600.00
01912              -4.00    -4400.00
01913             -10.00    -4400.00
01914              -8.00    -4200.00
01915              -6.00    -4000.00
01916              -4.00    -3800.00
01917              -4.00    -3600.00
01918              -4.00    -3400.00
01919              -8.00    -3400.00
01920              -8.00    -3200.00
01921              -6.00    -3200.00
01922              -4.00    -2800.00
01923              -4.00    -2600.00
01924              -4.00    -2400.00
01925              -4.00    -2400.00
01926              -8.00    -2000.00
01927              -6.00    -1800.00
01928              -4.00    -1600.00
01929              -4.00    -1600.00
01930              -4.00    -1200.00
01931              -4.00    -1200.00
01932              -4.00    -1000.00
01933              -8.00     -800.00
01934              -8.00     -600.00
01935              -4.00     -400.00
01936              -2.00     -400.00
01937              -2.00        0.00
01938              -2.00        0.00
01939               4.00      400.00
01940              22.00      400.00
01941               6.00      600.00
01942             -18.00     1000.00
01943             -10.00     1000.00
01944              12.00     1000.00
01945              12.00     1400.00
01946              52.00     1600.00
01947             252.00     1800.00
01948             118.00     2000.00
01949            -248.00     2200.00
01950            -248.00     2400.00
01951              32.00     2400.00
01952             248.00     2400.00
01953             252.00     3000.00
01954            -106.00     2800.00
01955            -248.00     3200.00
01956             252.00     3600.00
01957             252.00     3400.00
01958            -248.00     4000.00
01959            -154.00     3600.00
01960             252.00     4000.00
01961            -192.00     4400.00
01962             134.00     4000.00
01963             -42.00     4800.00
01964            -248.00     4800.00
01965             252.00     4400.00
01966             -20.00     5400.00
01967            -136.00     5200.00
01968             104.00     5000.00
01969            -138.00     6000.00
01970              58.00     5600.00
01971             128.00     5600.00
01972            -106.00     6400.00
01973             -76.00     5800.00
01974              -4.00     6200.00
01975             132.00     6800.00
01976             -64.00     6600.00
01977             -96.00     6800.00
01978             126.00     7200.00
01979             -96.00     7000.00
01980             -12.00     7000.00
01981              82.00     7400.00
01982             -86.00     7600.00
01983              38.00     7400.00
01984               6.00     8000.00
01985             -66.00     8000.00
01986               8.00     7800.00
01987              28.00     8400.00
01988               4.00     8000.00
01989             -52.00     8400.00
01990              20.00     8600.00
01991              -8.00     8600.00
01992             -36.00     8800.00
01993              64.00     8800.00
01994             -44.00     9000.00
01995             -36.00     9000.00
01996              56.00     9200.00
01997             -26.00     9600.00
01998             -30.00     9200.00
01999              12.00     9600.00
02000               0.00     9600.00
02001             -10.00     9600.00
02002               4.00    10000.00
02003             -16.00    10000.00
02004             -20.00    10000.00
02005              28.00    10000.00
02006              -8.00    10200.00
02007             -32.00    10000.00
02008              18.00    10400.00
02009              -8.00    10400.00
02010             -16.00    10400.00
02011              14.00    10400.00
02012             -16.00    10600.00
02013             -24.00    10400.00
02014              20.00    10800.00
02015               6.00    10600.00
02016             -24.00    10800.00
02017              -2.00    10800.00
02018              -4.00    10800.00
02019             -16.00    10800.00
02020               6.00    11000.00
02021               0.00    11000.00
02022             -18.00    11000.00
02023               0.00    11200.00
02024              -4.00    11200.00
02025             -14.00    11000.00
02026               4.00    11200.00
02027               0.00    11200.00
02028             -10.00    11200.00
02029               4.00    11200.00
02030              -4.00    11200.00
02031             -20.00    11200.00
02032               2.00    11200.00
02033               0.00    11200.00
02034             -12.00    11200.00
02035               0.00    11200.00
02036              -2.00    11200.00
02037             -12.00    11200.00
02038              -4.00    11200.00
02039               0.00    11200.00
02040             -10.00    11000.00
02041              -4.00    11000.00
02042               2.00    11000.00
02043              -8.00    11000.00
02044              -8.00    11000.00
02045              -4.00    11000.00
02046             -10.00    11000.00
02047               0.00    10800.00
02048               0.00    11000.00
02049              -6.00    10800.00
02050              -4.00    10800.00
02051              -2.00    10800.00
02052             -10.00    10400.00
02053              -2.00    10400.00
02054               0.00    10400.00
02055              -8.00    10600.00
02056              -4.00    10400.00
02057              -2.00    10200.00
02058              -4.00    10200.00
02059              -4.00    10000.00
02060               0.00    10000.00
02061              -2.00    10000.00
02062              -4.00     9800.00
02063              -4.00     9600.00
02064              -8.00     9600.00
02065              -4.00     9600.00
02066              -2.00     9400.00
02067              -2.00     9400.00
02068               0.00     9200.00
02069              -2.00     9200.00
02070              -4.00     9200.00
02071              -4.00     9000.00
02072              -2.00     8800.00
02073              -2.00     8600.00
02074              -2.00     8600.00
02075               2.00     8400.00
02076              -4.00     8400.00
02077              -4.00     8400.00
02078              -2.00     8200.00
02079              -4.00     8000.00
02080              -2.00     7800.00
02081               0.00     7800.00
02082              -2.00     7800.00
02083              -4.00     7600.00
02084              -2.00     7400.00
02085              -2.00     7200.00
02086              -2.00     7200.00
02087               0.00     6800.00
02088              -2.00     7000.00
02089              -2.00     6600.00
02090              -2.00     6400.00
02091              -4.00     6400.00
02092              -4.00     6200.00
02093              -2.00     6200.00
02094               0.00     6000.00
02095              -2.00     5600.00
02096               0.00     5600.00
02097              -4.00     5600.00
02098              -4.00     5200.00
02099              -6.00     5000.00
02100              -2.00     5000.00
02101              -2.00     4800.00
02102               0.00     4600.00
02103               8.00     4600.00
02104               4.00     4200.00
02105              -4.00     4000.00
02106             -10.00     3800.00
02107              -8.00     3600.00
02108              -2.00     3600.00
02109               4.00     3400.00
02110               4.00     3200.00
02111              -2.00     3000.00
02112              -4.00     2800.00
02113              -4.00     2600.00
02114               0.00     2400.00
02115               4.00     2400.00
02116               0.00     2200.00
02117              -4.00     2000.00
02118              -4.00     1600.00
02119              -4.00     1600.00
02120              -2.00     1200.00
02121               2.00     1200.00
02122               0.00     1000.00
02123              -2.00      800.00
02124               0.00      800.00
02125              -2.00      600.00
02126               0.00      400.00
02127               2.00      200.00
02128               4.00        0.00
02129               4.00     -200.00
02130               6.00     -400.00
02131              26.00     -400.00
02132              16.00     -800.00
02133             -12.00     -800.00
02134              -8.00    -1000.00
02135              12.00    -1200.00
02136              16.00    -1400.00
02137              16.00    -1600.00
02138             100.00    -1600.00
02139             252.00    -2000.00
02140               4.00    -2600.00
02141            -248.00    -2600.00
02142            -248.00    -2800.00
02143             132.00    -3000.00
02144             140.00    -2600.00
02145             252.00    -2800.00
02146              86.00    -3600.00
02147            -248.00    -3000.00
02148              80.00    -3400.00
02149             252.00    -4200.00
02150            -234.00    -3400.00
02151            -248.00    -4200.00
02152             148.00    -4400.00
02153              72.00    -4000.00
02154              96.00    -4800.00
02155             -92.00    -5000.00
02156            -168.00    -4600.00
02157             118.00    -5200.00
02158             100.00    -5200.00
02159              -2.00    -5400.00
02160             -90.00    -5800.00
02161             -88.00    -5800.00
02162             148.00    -5800.00
02163              80.00    -6000.00
02164            -114.00    -6400.00
02165             -64.00    -6400.00
02166              44.00    -6400.00
02167              92.00    -6800.00
02168             -10.00    -6800.00
02169             -80.00    -7000.00
02170             -18.00    -7200.00
02171              56.00    -7200.00
02172              48.00    -7600.00
02173             -56.00    -7600.00
02174             -22.00    -7600.00
02175              46.00    -8000.00
02176               0.00    -7800.00
02177              -2.00    -8000.00
02178             -18.00    -8400.00
02179              -4.00    -8400.00
02180              52.00    -8400.00
02181              -4.00    -8600.00
02182             -42.00    -9000.00
02183              -2.00    -9000.00
02184              28.00    -9000.00
02185              14.00    -9200.00
02186              -2.00    -9200.00
02187             -10.00    -9200.00
02188              -4.00    -9600.00
02189              22.00    -9600.00
02190               4.00    -9600.00
02191             -22.00    -9800.00
02192              12.00    -9800.00
02193              20.00   -10000.00
02194              -8.00   -10000.00
02195              -4.00   -10000.00
02196              -2.00   -10000.00
02197               0.00   -10400.00
02198              12.00   -10200.00
02199               6.00   -10400.00
02200              -4.00   -10600.00
02201               4.00   -10400.00
02202               6.00   -10600.00
02203              -8.00   -10800.00
02204              -2.00   -10600.00
02205               6.00   -10800.00
02206               4.00   -10800.00
02207               8.00   -10800.00
02208               0.00   -10800.00
02209             -12.00   -11000.00
02210               4.00   -11000.00
02211               8.00   -11200.00
02212               0.00   -11200.00
02213               6.00   -11200.00
02214               4.00   -11200.00
02215              -6.00   -11200.00
02216              -2.00   -11200.00
02217               4.00   -11200.00
02218              -2.00   -11200.00
02219               6.00   -11200.00
02220               6.00   -11200.00
02221              -4.00   -11400.00
02222              -4.00   -11400.00
02223               0.00   -11400.00
02224              -2.00   -11400.00
02225               4.00   -11200.00
02226               4.00   -11200.00
02227              -2.00   -11400.00
02228              -4.00   -11400.00
02229              -2.00   -11400.00
02230              -4.00   -11200.00
02231               0.00   -11200.00
02232               4.00   -11200.00
02233               2.00   -11200.00
02234              -2.00   -11200.00
02235               0.00   -11200.00
02236              -6.00   -11200.00
02237              -4.00   -10800.00
02238               2.00   -10800.00
02239               4.00   -11000.00
02240              -2.00   -10800.00
02241              -4.00   -10800.00
02242              -4.00   -10800.00
02243              -4.00   -10800.00
02244               0.00   -10600.00
02245              -4.00   -10600.00
02246               4.00   -10400.00
02247               0.00   -10400.00
02248              -4.00   -10400.00
02249              -8.00   -10400.00
02250              -4.00   -10400.00
02251              -4.00   -10000.00
02252               0.00   -10000.00
02253               0.00   -10000.00
02254              -2.00    -9800.00
02255              -4.00   -10000.00
02256              -4.00    -9800.00
02257              -4.00    -9600.00
02258              -2.00    -9600.00
02259               0.00    -9600.00
02260              -2.00    -9400.00
02261              -4.00    -9200.00
02262              -6.00    -9200.00
02263              -4.00    -9200.00
02264              -2.00    -9000.00
02265               0.00    -8800.00
02266              -2.00    -8800.00
02267              -2.00    -8600.00
02268              -4.00    -8400.00
02269              -8.00    -8200.00
02270              -4.00    -8200.00
02271               0.00    -8000.00
02272               0.00    -8000.00
02273              -2.00    -8000.00
02274              -2.00    -7600.00
02275              -4.00    -7600.00
02276              -6.00    -7400.00
02277              -4.00    -7200.00
02278              -2.00    -7200.00
02279              -2.00    -7000.00
02280              -2.00    -6800.00
02281              -4.00    -6800.00
02282              -8.00    -6600.00
02283              -6.00    -6400.00
02284              -4.00    -6000.00
02285              -2.00    -6200.00
02286              -2.00    -6000.00
02287              -2.00    -5600.00
02288              -8.00    -5600.00
02289              -8.00    -5400.00
02290              -8.00    -5200.00
02291              -6.00    -5200.00
02292              -2.00    -5000.00
02293              -4.00    -4800.00
02294              -6.00    -4600.00
02295              -8.00    -4400.00
02296              -8.00    -4200.00
02297              -4.00    -4200.00
02298              -4.00    -4000.00
02299              -4.00    -3800.00
02300              -4.00    -3400.00
02301              -8.00    -3400.00
02302             -10.00    -3200.00
02303              -8.00    -3000.00
02304              -4.00    -2800.00
02305              -4.00    -2800.00
02306              -4.00    -2600.00
02307              -6.00    -2400.00
02308              -8.00    -2400.00
02309              -8.00    -2000.00
02310              -8.00    -1800.00
02311              -8.00    -1600.00
02312              -4.00    -1200.00
02313              -4.00    -1200.00
02314              -4.00    -1000.00
02315              -6.00     -800.00
02316              -8.00     -800.00
02317              -4.00     -400.00
02318              -4.00     -400.00
02319              -4.00     -200.00
02320              -2.00        0.00
02321              -2.00      200.00
02322              14.00      400.00
02323              16.00      600.00
02324             -10.00      800.00
02325             -20.00     1000.00
02326               0.00     1200.00
02327              14.00     1200.00
02328              16.00     1400.00
02329             138.00     1600.00
02330             252.00     2000.00
02331            -156.00     2200.00
02332            -248.00     2400.00
02333            -180.00     2400.00
02334             122.00     2400.00
02335             252.00     2800.00
02336             252.00     3000.00
02337            -248.00     2800.00
02338            -248.00     3200.00
02339             252.00     3400.00
02340             156.00     3800.00
02341            -248.00     3800.00
02342             252.00     3600.00
02343             100.00     4400.00
02344            -124.00     4000.00
02345             188.00     4400.00
02346            -248.00     5000.00
02347              22.00     4600.00
02348             252.00     4800.00
02349            -202.00     5600.00
02350              36.00     5000.00
02351               4.00     5400.00
02352            -110.00     6000.00
02353             172.00     5400.00
02354               0.00     6200.00
02355            -106.00     6200.00
02356             -56.00     6000.00
02357              70.00     6600.00
02358              92.00     6600.00
02359            -156.00     6400.00
02360              44.00     6800.00
02361              52.00     7000.00
02362            -124.00     7200.00
02363              92.00     7200.00
02364             -14.00     7600.00
02365             -50.00     7600.00
02366              62.00     7600.00
02367             -52.00     8200.00
02368             -28.00     8000.00
02369              24.00     8000.00
02370              28.00     8400.00
02371             -34.00     8000.00
02372             -32.00     8600.00
02373              32.00     8600.00
02374             -50.00     8600.00
02375              22.00     8800.00
02376              32.00     8800.00
02377             -76.00     9200.00
02378              22.00     9200.00
02379              28.00     9400.00
02380             -44.00     9200.00
02381              -4.00     9400.00
02382               8.00     9600.00
02383             -10.00     9400.00
02384              -4.00     9800.00
02385              -2.00     9800.00
02386             -28.00    10000.00
02387               2.00    10000.00
02388              22.00    10000.00
02389             -34.00    10200.00
02390              -4.00    10000.00
02391              14.00    10400.00
02392             -20.00    10400.00
02393               4.00    10400.00
02394               4.00    10400.00
02395             -30.00    10400.00
02396              -4.00    10400.00
02397              22.00    10800.00
02398             -12.00    10800.00
02399             -18.00    10800.00
02400               6.00    10800.00
02401             -12.00    11000.00
02402              -4.00    11000.00
02403               8.00    11000.00
02404             -12.00    11000.00
02405              -8.00    11000.00
02406               4.00    11000.00
02407             -10.00    11200.00
02408             -10.00    11200.00
02409               4.00    11200.00
02410              -8.00    11000.00
02411              -2.00    11200.00
02412               4.00    11200.00
02413             -16.00    11200.00
02414             -12.00    11200.00
02415               4.00    11200.00
02416              -4.00    11200.00
02417              -4.00    11000.00
02418               4.00    11200.00
02419             -10.00    11200.00
02420             -10.00    11200.00
02421               0.00    11200.00
02422              -8.00    11200.00
02423             -10.00    11000.00
02424               2.00    11000.00
02425              -4.00    11000.00
02426              -8.00    10800.00
02427              -4.00    11000.00
02428             -10.00    11000.00
02429              -8.00    10800.00
02430               4.00    10800.00
02431              -4.00    10800.00
02432              -8.00    10800.00
02433              -4.00    10600.00
02434              -8.00    10800.00
02435              -4.00    10600.00
02436               4.00    10400.00
02437              -4.00    10400.00
02438              -8.00    10400.00
02439              -4.00    10200.00
02440              -4.00    10400.00
02441             -10.00    10000.00
02442              -4.00    10000.00
02443              -2.00    10000.00
02444              -2.00    10000.00
02445              -2.00     9800.00
02446              -6.00     9600.00
02447              -4.00     9600.00
02448              -4.00     9600.00
02449              -4.00     9400.00
02450              -2.00     9400.00
02451               0.00     9200.00
02452              -4.00     9200.00
02453              -6.00     9000.00
02454              -4.00     8800.00
02455              -4.00     8800.00
02456              -4.00     8600.00
02457               0.00     8600.00
02458              -2.00     8400.00
02459              -6.00     8400.00
02460              -4.00     8000.00
02461              -2.00     8000.00
02462              -2.00     8000.00
02463              -2.00     7800.00
02464               0.00     7600.00
02465              -4.00     7600.00
02466              -4.00     7600.00
02467              -2.00     7200.00
02468              -2.00     7000.00
02469               0.00     7000.00
02470              -2.00     6800.00
02471              -2.00     6600.00
02472               0.00     6800.00
02473              -2.00     6400.00
02474              -4.00     6200.00
02475              -4.00     6200.00
02476               0.00     6000.00
02477              -2.00     5800.00
02478              -2.00     5600.00
02479              -4.00     5400.00
02480              -4.00     5400.00
02481              -2.00     5200.00
02482               0.00     5200.00
02483               0.00     4800.00
02484              -2.00     4600.00
02485              -2.00     4600.00
02486              -2.00     4400.00
02487              -2.00     4000.00
02488              -4.00     4000.00
02489              -2.00     3800.00
02490               0.00     3600.00
02491               0.00     3400.00
02492              -2.00     3200.00
02493              -2.00     3200.00
02494              -2.00     3000.00
02495              -2.00     2800.00
02496              -2.00     2600.00
02497              -2.00     2200.00
02498              -2.00     2400.00
02499              -2.00     2000.00
02500              -2.00     1800.00
02501              -2.00     1600.00
02502               0.00     1400.00
02503              -2.00     1200.00
02504               2.00     1200.00
02505               0.00     1000.00
02506              -2.00      800.00
02507              -2.00      600.00
02508              -2.00      400.00
02509               0.00      200.00
02510               0.00        0.00
02511               4.00     -200.00
02512               4.00     -400.00
02513              14.00     -600.00
02514              24.00     -600.00
02515               2.00     -800.00
02516             -16.00     -800.00
02517               0.00    -1000.00
02518              16.00    -1200.00
02519              14.00    -1600.00
02520              36.00    -1600.00
02521             188.00    -1800.00
02522             220.00    -2400.00
02523            -242.00    -2800.00
02524            -248.00    -2600.00
02525             -54.00    -2800.00
02526             158.00    -2800.00
02527             212.00    -2600.00
02528             252.00    -3200.00
02529            -248.00    -3600.00
02530            -248.00    -2800.00
02531             252.00    -4200.00
02532             252.00    -3800.00
02533            -248.00    -3600.00
02534             -42.00    -4600.00
02535             146.00    -4200.00
02536              68.00    -4200.00
02537              54.00    -5200.00
02538            -200.00    -4800.00
02539             -28.00    -5000.00
02540             158.00    -5400.00
02541              38.00    -5200.00
02542             -32.00    -5400.00
02543            -130.00    -5600.00
02544              22.00    -5800.00
02545             176.00    -6000.00
02546             -26.00    -6000.00
02547            -114.00    -6400.00
02548             -12.00    -6400.00
02549              80.00    -6800.00
02550              62.00    -7000.00
02551             -62.00    -6800.00
02552             -56.00    -7200.00
02553              16.00    -7400.00
02554              68.00    -7400.00
02555               4.00    -7600.00
02556             -60.00    -7600.00
02557              26.00    -7800.00
02558              28.00    -8000.00
02559             -10.00    -8000.00
02560              -4.00    -8200.00
02561             -20.00    -8200.00
02562              30.00    -8600.00
02563              38.00    -8800.00
02564             -34.00    -8800.00
02565             -28.00    -9000.00
02566              12.00    -9000.00
02567              28.00    -9200.00
02568               4.00    -9200.00
02569              -8.00    -9400.00
02570             -10.00    -9600.00
02571               4.00    -9600.00
02572              20.00    -9600.00
02573             -16.00    -9600.00
02574             -10.00    -9800.00
02575              22.00   -10000.00
02576               6.00   -10000.00
02577              -8.00   -10000.00
02578              -2.00   -10200.00
02579              -2.00   -10200.00
02580               6.00   -10400.00
02581              12.00   -10400.00
02582              -2.00   -10400.00
02583              -2.00   -10600.00
02584               6.00   -10600.00
02585              -2.00   -10800.00
02586              -8.00   -10800.00
02587               4.00   -10800.00
02588               4.00   -10800.00
02589               6.00   -10800.00
02590               8.00   -10800.00
02591              -8.00   -10800.00
02592              -8.00   -11000.00
02593               6.00   -11000.00
02594               4.00   -11000.00
02595               0.00   -11200.00
02596               6.00   -11200.00
02597              -2.00   -11200.00
02598              -8.00   -11200.00
02599               2.00   -11200.00
02600               2.00   -11200.00
02601               2.00   -11400.00
02602               8.00   -11400.00
02603               4.00   -11400.00
02604              -4.00   -11400.00
02605              -4.00   -11400.00
02606               2.00   -11200.00
02607               2.00   -11400.00
02608               6.00   -11400.00
02609               4.00   -11200.00
02610              -2.00   -11400.00
02611               0.00   -11400.00
02612              -2.00   -11200.00
02613              -2.00   -11200.00
02614               4.00   -11200.00
02615               0.00   -11000.00
02616              -2.00   -11200.00
02617              -2.00   -11200.00
02618              -4.00   -11200.00
02619              -6.00   -11200.00
02620               0.00   -11000.00
02621               2.00   -10800.00
02622               0.00   -10800.00
02623               0.00   -11000.00
02624              -4.00   -10800.00
02625              -6.00   -10800.00
02626              -4.00   -10800.00
02627              -2.00   -10600.00
02628               0.00   -10600.00
02629               0.00   -10600.00
02630              -4.00   -10400.00
02631              -6.00   -10400.00
02632              -4.00   -10400.00
02633              -2.00   -10200.00
02634              -2.00   -10200.00
02635              -2.00   -10000.00
02636              -2.00   -10000.00
02637              -4.00    -9800.00
02638              -4.00    -9800.00
02639              -4.00    -9800.00
02640              -4.00    -9600.00
02641              -2.00    -9600.00
02642               0.00    -9200.00
02643              -2.00    -9200.00
02644              -4.00    -9200.00
02645              -8.00    -9200.00
02646              -4.00    -9000.00
02647              -2.00    -8800.00
02648               0.00    -8800.00
02649              -2.00    -8800.00
02650              -4.00    -8600.00
02651              -4.00    -8400.00
02652              -8.00    -8200.00
02653              -4.00    -8200.00
02654               0.00    -8000.00
02655               0.00    -7800.00
02656              -2.00    -7600.00
02657              -4.00    -7600.00
02658              -8.00    -7600.00
02659              -4.00    -7400.00
02660              -2.00    -7200.00
02661               0.00    -7200.00
02662              -4.00    -6800.00
02663              -2.00    -6800.00
02664              -4.00    -6600.00
02665              -8.00    -6400.00
02666              -4.00    -6400.00
02667              -2.00    -6000.00
02668               0.00    -5800.00
02669              -2.00    -5800.00
02670              -4.00    -5400.00
02671              -8.00    -5600.00
02672              -4.00    -5200.00
02673              -4.00    -5200.00
02674              -2.00    -5000.00
02675              -4.00    -5000.00
02676              -2.00    -4800.00
02677              -4.00    -4400.00
02678              -8.00    -4400.00
02679              -8.00    -4200.00
02680              -4.00    -4000.00
02681              -4.00    -3800.00
02682              -4.00    -3600.00
02683              -4.00    -3600.00
02684              -8.00    -3400.00
02685             -10.00    -3200.00
02686              -4.00    -3000.00
02687              -4.00    -2800.00
02688              -2.00    -2600.00
02689              -2.00    -2600.00
02690              -4.00    -2400.00
02691              -8.00    -2000.00
02692             -10.00    -1800.00
02693              -8.00    -1800.00
02694              -4.00    -1600.00
02695              -4.00    -1200.00
02696              -4.00    -1200.00
02697              -8.00    -1000.00
02698              -8.00     -800.00
02699              -8.00     -800.00
02700              -4.00     -400.00
02701              -4.00     -200.00
02702              -4.00        0.00
02703              -4.00        0.00
02704               4.00      400.00
02705              22.00      400.00
02706               6.00      600.00
02707             -20.00     1000.00
02708             -12.00     1000.00
02709               6.00     1200.00
02710              12.00     1200.00
02711              44.00     1400.00
02712             246.00     2000.00
02713             150.00     2000.00
02714            -248.00     2400.00
02715            -248.00     2400.00
02716              14.00     2400.00
02717             228.00     2400.00
02718             252.00     3000.00
02719              -2.00     3000.00
02720            -248.00     3000.00
02721             252.00     3400.00
02722             252.00     3600.00
02723            -248.00     3800.00
02724            -232.00     3600.00
02725             252.00     4000.00
02726            -178.00     4400.00
02727             106.00     4000.00
02728               0.00     4800.00
02729            -248.00     5000.00
02730             252.00     4600.00
02731              16.00     5400.00
02732            -156.00     5200.00
02733             110.00     5000.00
02734            -124.00     6000.00
02735              32.00     5600.00
02736             142.00     5600.00
02737             -92.00     6400.00
02738             -78.00     6000.00
02739             -16.00     6200.00
02740             134.00     6800.00
02741             -44.00     6600.00
02742            -114.00     6800.00
02743             130.00     7200.00
02744             -80.00     7000.00
02745             -32.00     7000.00
02746              92.00     7400.00
02747             -84.00     7800.00
02748              28.00     7400.00
02749              16.00     8000.00
02750             -66.00     7800.00
02751               6.00     7800.00
02752              28.00     8400.00
02753               8.00     8200.00
02754             -58.00     8400.00
02755              16.00     8800.00
02756              -2.00     8400.00
02757             -42.00     8800.00
02758              64.00     8800.00
02759             -36.00     9000.00
02760             -48.00     9000.00
02761              56.00     9200.00
02762             -22.00     9400.00
02763             -34.00     9400.00
02764               8.00     9600.00
02765              -2.00     9600.00
02766             -10.00     9600.00
02767               4.00     9800.00
02768             -14.00     9600.00
02769             -26.00    10000.00
02770              22.00    10200.00
02771              -4.00    10200.00
02772             -34.00    10200.00
02773              16.00    10200.00
02774              -4.00    10400.00
02775             -20.00    10400.00
02776              12.00    10400.00
02777             -14.00    10600.00
02778             -26.00    10600.00
02779              18.00    10600.00
02780               6.00    10800.00
02781             -26.00    10800.00
02782              -4.00    11000.00
02783              -2.00    10800.00
02784             -16.00    10800.00
02785               6.00    11000.00
02786               0.00    11000.00
02787             -16.00    11200.00
02788               0.00    11200.00
02789              -2.00    11200.00
02790             -14.00    11200.00
02791              -2.00    11200.00
02792               0.00    11200.00
02793             -10.00    11200.00
02794               4.00    11200.00
02795              -2.00    11200.00
02796             -18.00    11200.00
02797              -2.00    11000.00
02798               4.00    11200.00
02799             -10.00    11200.00
02800               0.00    11200.00
02801               0.00    11200.00
02802             -12.00    11200.00
02803              -4.00    11200.00
02804               4.00    11200.00
02805             -10.00    11200.00
02806              -2.00    11000.00
02807               4.00    11000.00
02808              -8.00    11000.00
02809              -4.00    11000.00
02810              -4.00    11000.00
02811             -10.00    10800.00
02812              -2.00    11000.00
02813               0.00    10800.00
02814              -8.00    10800.00
02815              -8.00    10800.00
02816              -4.00    10600.00
02817              -8.00    10400.00
02818              -4.00    10400.00
02819               0.00    10400.00
02820              -8.00    10400.00
02821              -4.00    10400.00
02822              -4.00    10200.00
02823              -6.00    10200.00
02824              -4.00    10200.00
02825              -4.00    10200.00
02826              -2.00    10000.00
02827              -4.00     9800.00
02828              -4.00     9600.00
02829              -8.00     9600.00
02830              -8.00     9600.00
02831              -2.00     9400.00
02832              -4.00     9400.00
02833              -2.00     9200.00
02834              -2.00     9200.00
02835              -6.00     9200.00
02836              -4.00     8800.00
02837               0.00     8800.00
02838              -4.00     8600.00
02839               0.00     8600.00
02840               0.00     8600.00
02841              -4.00     8400.00
02842              -4.00     8200.00
02843              -4.00     8200.00
02844              -4.00     8000.00
02845              -4.00     8000.00
02846              -2.00     7800.00
02847              -4.00     7600.00
02848              -4.00     7600.00
02849              -2.00     7600.00
02850              -4.00     7200.00
02851               0.00     7000.00
02852               0.00     7000.00
02853               0.00     6800.00
02854              -2.00     6800.00
02855               0.00     6600.00
02856              -4.00     6400.00
02857              -4.00     6200.00
02858               0.00     6000.00
02859               4.00     6000.00
02860               0.00     5600.00
02861              -2.00     5600.00
02862              -2.00     5400.00
02863              -2.00     5400.00
02864              -2.00     5000.00
02865               2.00     5000.00
02866               0.00     4800.00
02867               2.00     4600.00
02868              -2.00     4400.00
02869              -2.00     4200.00
02870              -2.00     4000.00
02871               0.00     3800.00
02872               4.00     3600.00
02873               4.00     3600.00
02874              -2.00     3400.00
02875              -2.00     3200.00
02876              -2.00     3000.00
02877              -2.00     2800.00
02878               0.00     2600.00
02879               4.00     2400.00
02880               0.00     2400.00
02881              -2.00     2200.00
02882              -2.00     2000.00
02883               0.00     2000.00
02884              -2.00     1600.00
02885               0.00     1400.00
02886               2.00     1200.00
02887               0.00     1200.00
02888               0.00      800.00
02889              -2.00      800.00
02890              -2.00      600.00
02891              -2.00      200.00
02892               0.00        0.00
02893               6.00        0.00
02894               4.00     -200.00
02895               6.00     -400.00
02896              22.00     -600.00
02897              16.00     -800.00
02898              -8.00    -1000.00
02899             -12.00    -1000.00
02900               8.00    -1200.00
02901              18.00    -1400.00
02902              14.00    -1600.00
02903              86.00    -1600.00
02904             252.00    -2000.00
02905              38.00    -2400.00
02906            -248.00    -2600.00
02907            -248.00    -2600.00
02908             118.00    -2800.00
02909             140.00    -2600.00
02910             252.00    -2800.00
02911             142.00    -3600.00
02912            -248.00    -3200.00
02913              -2.00    -3400.00
02914             252.00    -4200.00
02915            -170.00    -3600.00
02916            -248.00    -4200.00
02917             134.00    -4600.00
02918              78.00    -4000.00
02919              94.00    -4800.00
02920             -68.00    -5000.00
02921            -180.00    -4600.00
02922             104.00    -5200.00
02923             116.00    -5200.00
02924               0.00    -5200.00
02925             -82.00    -5600.00
02926             -98.00    -5600.00
02927             136.00    -6000.00
02928             102.00    -6000.00
02929            -104.00    -6400.00
02930             -74.00    -6600.00
02931              32.00    -6400.00
02932              94.00    -6800.00
02933               0.00    -6800.00
02934             -76.00    -6800.00
02935             -18.00    -7400.00
02936              48.00    -7200.00
02937              48.00    -7400.00
02938             -44.00    -7600.00
02939             -26.00    -7600.00
02940              44.00    -8000.00
02941               0.00    -8000.00
02942              -8.00    -8000.00
02943             -18.00    -8200.00
02944              -4.00    -8400.00
02945              52.00    -8800.00
02946               0.00    -8600.00
02947             -42.00    -9000.00
02948              -8.00    -9000.00
02949              24.00    -9000.00
02950              16.00    -9200.00
02951              -2.00    -9200.00
02952             -10.00    -9200.00
02953              -8.00    -9400.00
02954              16.00    -9600.00
02955               4.00    -9600.00
02956             -20.00    -9800.00
02957               8.00    -9800.00
02958              18.00   -10000.00
02959              -6.00   -10000.00
02960              -6.00   -10200.00
02961              -4.00   -10000.00
02962              -2.00   -10400.00
02963              12.00   -10400.00
02964               6.00   -10400.00
02965              -8.00   -10400.00
02966               4.00   -10600.00
02967               6.00   -10600.00
02968              -6.00   -10600.00
02969              -2.00   -10800.00
02970               6.00   -10800.00
02971               4.00   -10800.00
02972               8.00   -10800.00
02973               0.00   -10800.00
02974             -10.00   -11000.00
02975              -2.00   -11000.00
02976               6.00   -11000.00
02977              -2.00   -11200.00
02978               4.00   -11200.00
02979               4.00   -11200.00
02980              -4.00   -11200.00
02981              -2.00   -11200.00
02982               4.00   -11200.00
02983               0.00   -11200.00
02984               4.00   -11400.00
02985               6.00   -11200.00
02986              -4.00   -11400.00
02987              -6.00   -11400.00
02988               0.00   -11400.00
02989               0.00   -11400.00
02990               4.00   -11400.00
02991               6.00   -11200.00
02992              -2.00   -11200.00
02993              -2.00   -11400.00
02994              -2.00   -11200.00
02995              -6.00   -11200.00
02996               0.00   -11200.00
02997               6.00   -11200.00
02998               2.00   -11200.00
02999              -2.00   -11200.00
03000              -2.00   -11200.00
03001              -6.00   -11000.00
03002              -4.00   -11000.00
03003               4.00   -10800.00
03004               4.00   -10800.00
03005               0.00   -10800.00
03006               0.00   -10800.00
03007              -4.00   -10800.00
03008              -4.00   -10800.00
03009              -2.00   -10600.00
03010               0.00   -10400.00
03011               0.00   -10400.00
03012               0.00   -10600.00
03013              -4.00   -10400.00
03014              -4.00   -10400.00
03015              -2.00   -10400.00
03016              -2.00   -10400.00
03017              -2.00   -10200.00
03018              -2.00   -10000.00
03019              -2.00   -10000.00
03020              -4.00    -9800.00
03021              -4.00    -9800.00
03022              -4.00    -9800.00
03023              -4.00    -9600.00
03024               0.00    -9400.00
03025              -2.00    -9200.00
03026              -4.00    -9200.00
03027              -8.00    -9200.00
03028              -8.00    -9200.00
03029              -4.00    -9000.00
03030              -2.00    -8800.00
03031              -2.00    -8800.00
03032              -2.00    -8600.00
03033              -4.00    -8400.00
03034              -4.00    -8400.00
03035              -6.00    -8200.00
03036              -4.00    -8200.00
03037               0.00    -8000.00
03038              -4.00    -7800.00
03039              -2.00    -7600.00
03040              -4.00    -7600.00
03041              -4.00    -7600.00
03042              -8.00    -7200.00
03043              -4.00    -7200.00
03044              -2.00    -7200.00
03045              -2.00    -6800.00
03046              -4.00    -6800.00
03047              -6.00    -6600.00
03048              -4.00    -6600.00
03049              -8.00    -6400.00
03050              -4.00    -6200.00
03051               4.00    -6000.00
03052              -2.00    -5800.00
03053              -2.00    -5400.00
03054              -4.00    -5400.00
03055             -12.00    -5200.00
03056              -4.00    -5200.00
03057               4.00    -5000.00
03058               0.00    -4800.00
03059              -4.00    -4600.00
03060              -4.00    -4400.00
03061             -10.00    -4400.00
03062              -4.00    -4200.00
03063               4.00    -4000.00
03064              -4.00    -3800.00
03065              -4.00    -3600.00
03066              -4.00    -3400.00
03067              -8.00    -3200.00
03068              -4.00    -3200.00
03069              -2.00    -3000.00
03070              -4.00    -2600.00
03071              -4.00    -2600.00
03072              -4.00    -2400.00
03073              -8.00    -2200.00
03074              -8.00    -2000.00
03075              -4.00    -1800.00
03076              -6.00    -1600.00
03077              -4.00    -1400.00
03078              -2.00    -1200.00
03079              -4.00    -1200.00
03080              -8.00    -1000.00
03081              -8.00     -800.00
03082             -10.00     -600.00
03083              -4.00     -400.00
03084              -4.00        0.00
03085              -2.00        0.00
03086              -4.00        0.00
03087              12.00      400.00
03088              20.00      600.00
03089              -8.00      600.00
03090             -20.00     1000.00
03091              -2.00     1000.00
03092               8.00     1200.00
03093              12.00     1400.00
03094             120.00     1600.00
03095             252.00     2000.00
03096            -116.00     2200.00
03097            -248.00     2400.00
03098            -218.00     2200.00
03099             112.00     2400.00
03100             252.00     2800.00
03101             252.00     3000.00
03102            -248.00     2800.00
03103            -248.00     3200.00
03104             252.00     3200.00
03105             252.00     3800.00
03106            -248.00     3800.00
03107             252.00     3600.00
03108             148.00     4200.00
03109            -148.00     4200.00
03110             200.00     4400.00
03111            -248.00     5200.00
03112             -26.00     4600.00
03113             252.00     4800.00
03114            -186.00     5600.00
03115              14.00     4800.00
03116              22.00     5400.00
03117            -124.00     6200.00
03118             164.00     5600.00
03119              20.00     6000.00
03120            -108.00     6400.00
03121             -56.00     6000.00
03122              60.00     6800.00
03123             104.00     6400.00
03124            -152.00     6600.00
03125              24.00     7000.00
03126              72.00     7000.00
03127            -128.00     7200.00
03128              80.00     7000.00
03129               4.00     7600.00
03130             -60.00     7600.00
03131              64.00     7600.00
03132             -44.00     8200.00
03133             -34.00     7800.00
03134              22.00     8000.00
03135              30.00     8400.00
03136             -26.00     8200.00
03137             -36.00     8600.00
03138              36.00     8600.00
03139             -48.00     8600.00
03140              14.00     8800.00
03141              40.00     9000.00
03142             -76.00     9000.00
03143              14.00     9000.00
03144              32.00     9400.00
03145             -44.00     9400.00
03146              -8.00     9400.00
03147              12.00     9600.00
03148             -10.00     9400.00
03149              -4.00     9800.00
03150               0.00     9800.00
03151             -28.00    10000.00
03152              -4.00    10000.00
03153              24.00    10000.00
03154             -32.00    10200.00
03155             -10.00    10200.00
03156              16.00    10400.00
03157             -20.00    10400.00
03158              -4.00    10400.00
03159               6.00    10400.00
03160             -28.00    10400.00
03161              -8.00    10400.00
03162              22.00    10600.00
03163             -12.00    10800.00
03164             -20.00    10800.00
03165               4.00    10800.00
03166             -12.00    11000.00
03167             -10.00    11000.00
03168              10.00    11000.00
03169             -10.00    11000.00
03170             -10.00    11000.00
03171               4.00    11200.00
03172             -12.00    11200.00
03173             -10.00    11000.00
03174               4.00    11200.00
03175              -6.00    11200.00
03176              -4.00    11000.00
03177               4.00    11200.00
03178             -14.00    11200.00
03179             -12.00    11200.00
03180               6.00    11200.00
03181              -4.00    11200.00
03182              -6.00    11200.00
03183               4.00    11200.00
03184              -8.00    11200.00
03185             -12.00    11200.00
03186               4.00    11200.00
03187              -4.00    11200.00
03188              -8.00    11200.00
03189               4.00    11200.00
03190              -4.00    11000.00
03191              -6.00    11200.00
03192              -4.00    11000.00
03193              -8.00    11000.00
03194              -4.00    10800.00
03195               4.00    11000.00
03196              -2.00    10800.00
03197              -4.00    10800.00
03198              -4.00    10800.00
03199              -4.00    10600.00
03200              -8.00    10600.00
03201              -2.00    10400.00
03202              -4.00    10400.00
03203              -8.00    10400.00
03204              -4.00    10200.00
03205              -2.00    10200.00
03206              -6.00    10000.00
03207              -2.00    10200.00
03208               4.00    10000.00
03209               8.00    10000.00
03210             -18.00     9800.00
03211             -10.00     9600.00
03212               4.00     9600.00
03213             -12.00     9400.00
03214             -26.00     9600.00
03215             -20.00     9200.00
03216              50.00     9400.00
03217              16.00     9200.00
03218              -2.00     9200.00
03219             -24.00     8800.00
03220              14.00     8800.00
03221               4.00     8600.00
03222             -32.00     8600.00
03223             -36.00     8600.00
03224               8.00     8400.00
03225              32.00     8400.00
03226             -10.00     8000.00
03227             -18.00     7800.00
03228               0.00     7800.00
03229              34.00     7600.00
03230              -2.00     7600.00
03231             -32.00     7400.00
03232             -18.00     7200.00
03233               8.00     7200.00
03234              12.00     7000.00
03235              -2.00     7000.00
03236             -18.00     6800.00
03237               4.00     6400.00
03238              10.00     6400.00
03239              -2.00     6200.00
03240              -6.00     6200.00
03241             -12.00     6000.00
03242               6.00     5800.00
03243              10.00     5600.00
03244              -2.00     5600.00
03245             -20.00     5200.00
03246              -8.00     5200.00
03247              22.00     5200.00
03248               8.00     4800.00
03249              -8.00     4800.00
03250              -8.00     4400.00
03251               4.00     4400.00
03252               4.00     4200.00
03253               0.00     4000.00
03254              -8.00     3800.00
03255              -4.00     3600.00
03256               4.00     3600.00
03257               4.00     3200.00
03258               4.00     3200.00
03259              -2.00     3000.00
03260              -8.00     2800.00
03261              -2.00     2600.00
03262               8.00     2400.00
03263               2.00     2200.00
03264              -4.00     2200.00
03265               0.00     2000.00
03266               6.00     1600.00
03267               4.00     1600.00
03268               2.00     1400.00
03269              -4.00     1200.00
03270              -8.00     1000.00
03271               0.00      800.00
03272               4.00      600.00
03273               0.00      400.00
03274              -2.00      200.00
03275               0.00        0.00
03276               6.00     -200.00
03277               8.00     -400.00
03278              12.00     -400.00
03279              18.00     -600.00
03280               4.00     -800.00
03281             -16.00    -1000.00
03282               2.00    -1200.00
03283              16.00    -1400.00
03284              14.00    -1600.00
03285              32.00    -1600.00
03286             180.00    -1800.00
03287             230.00    -2400.00
03288            -212.00    -2600.00
03289            -248.00    -2600.00
03290             -86.00    -2800.00
03291             158.00    -2800.00
03292             190.00    -2600.00
03293             252.00    -3200.00
03294            -248.00    -3600.00
03295            -248.00    -3000.00
03296             252.00    -4200.00
03297             252.00    -4000.00
03298            -248.00    -3400.00
03299             -80.00    -4600.00
03300             150.00    -4200.00
03301              60.00    -4200.00
03302              64.00    -5200.00
03303            -192.00    -4800.00
03304             -50.00    -4800.00
03305             162.00    -5400.00
03306              44.00    -5000.00
03307             -26.00    -5600.00
03308            -124.00    -5800.00
03309               2.00    -5800.00
03310             176.00    -6000.00
03311             -10.00    -6200.00
03312            -118.00    -6400.00
03313             -20.00    -6400.00
03314              78.00    -6600.00
03315              68.00    -6800.00
03316             -54.00    -6800.00
03317             -60.00    -7200.00
03318              14.00    -7200.00
03319              66.00    -7200.00
03320              12.00    -7600.00
03321             -60.00    -7600.00
03322              22.00    -7800.00
03323              32.00    -8000.00
03324             -12.00    -8000.00
03325              -4.00    -8000.00
03326             -20.00    -8200.00
03327              24.00    -8400.00
03328              42.00    -8600.00
03329             -28.00    -8800.00
03330             -32.00    -9000.00
03331              12.00    -9000.00
03332              24.00    -9000.00
03333               6.00    -9200.00
03334              -8.00    -9200.00
03335             -12.00    -9200.00
03336               0.00    -9600.00
03337              16.00    -9600.00
03338             -10.00    -9800.00
03339             -10.00    -9800.00
03340              20.00    -9800.00
03341               6.00   -10000.00
03342              -8.00   -10000.00
03343              -4.00   -10000.00
03344              -4.00   -10400.00
03345               4.00   -10400.00
03346               8.00   -10400.00
03347              -2.00   -10400.00
03348              -4.00   -10600.00
03349               4.00   -10600.00
03350              -2.00   -10600.00
03351              -6.00   -10800.00
03352               0.00   -10800.00
03353               6.00   -10800.00
03354               6.00   -10800.00
03355               4.00   -10800.00
03356             -10.00   -11200.00
03357             -10.00   -11000.00
03358               6.00   -11200.00
03359               4.00   -11200.00
03360              -2.00   -11200.00
03361               6.00   -11000.00
03362              -2.00   -11200.00
03363              -8.00   -11400.00
03364               0.00   -11200.00
03365               2.00   -11200.00
03366               0.00   -11400.00
03367               6.00   -11400.00
03368               0.00   -11400.00
03369              -4.00   -11400.00
03370              -4.00   -11400.00
03371              -2.00   -11400.00
03372               4.00   -11400.00
03373               6.00   -11400.00
03374               2.00   -11400.00
03375              -2.00   -11200.00
03376               0.00   -11400.00
03377              -2.00   -11200.00
03378              -4.00   -11200.00
03379               4.00   -11200.00
03380               6.00   -11000.00
03381               0.00   -11200.00
03382              -2.00   -11200.00
03383              -2.00   -11200.00
03384              -4.00   -10800.00
03385               2.00   -11000.00
03386               4.00   -11000.00
03387               2.00   -10800.00
03388               2.00   -10800.00
03389              -2.00   -10800.00
03390              -4.00   -10800.00
03391               0.00   -10800.00
03392              -2.00   -10600.00
03393               4.00   -10600.00
03394               2.00   -10400.00
03395               0.00   -10400.00
03396              -2.00   -10400.00
03397              -4.00   -10400.00
03398              -2.00   -10200.00
03399              -2.00   -10000.00
03400               4.00   -10000.00
03401               0.00   -10000.00
03402              -4.00   -10000.00
03403              -6.00    -9800.00
03404              -4.00    -9600.00
03405              -4.00    -9800.00
03406               0.00    -9400.00
03407               0.00    -9600.00
03408              -4.00    -9200.00
03409              -6.00    -9200.00
03410              -8.00    -9200.00
03411              -6.00    -8800.00
03412              -4.00    -9000.00
03413              -2.00    -8800.00
03414              -2.00    -8800.00
03415              -4.00    -8400.00
03416              -6.00    -8400.00
03417              -4.00    -8200.00
03418              -4.00    -8200.00
03419              -2.00    -8000.00
03420              -2.00    -7800.00
03421              -2.00    -8000.00
03422              -4.00    -7600.00
03423              -4.00    -7600.00
03424              -4.00    -7400.00
03425              -4.00    -7200.00
03426              -4.00    -7200.00
03427              -4.00    -6800.00
03428              -4.00    -6800.00
03429              -4.00    -6800.00
03430              -8.00    -6400.00
03431              -6.00    -6400.00
03432              -4.00    -6200.00
03433              -4.00    -6000.00
03434              -2.00    -5800.00
03435              -2.00    -5600.00
03436              -8.00    -5400.00
03437              -8.00    -5400.00
03438              -4.00    -5200.00
03439              -2.00    -5000.00
03440              -2.00    -4800.00
03441              -4.00    -4800.00
03442              -4.00    -4600.00
03443              -4.00    -4400.00
03444              -4.00    -4200.00
03445              -4.00    -4000.00
03446              -4.00    -4000.00
03447              -4.00    -3600.00
03448              -2.00    -3600.00
03449              -4.00    -3400.00
03450              -8.00    -3200.00
03451              -8.00    -2800.00
03452              -4.00    -2800.00
03453              -4.00    -2800.00
03454              -2.00    -2400.00
03455              -2.00    -2200.00
03456              -8.00    -2000.00
03457              -8.00    -1800.00
03458              -8.00    -1600.00
03459              -4.00    -1600.00
03460              -2.00    -1200.00
03461              -4.00    -1000.00
03462              -8.00    -1000.00
03463             -10.00     -800.00
03464              -8.00     -800.00
03465              -8.00     -400.00
03466              -4.00     -200.00
03467              -2.00     -200.00
03468              -2.00        0.00
03469               0.00      400.00
03470              22.00      400.00
03471               6.00      600.00
03472             -18.00      800.00
03473             -12.00     1000.00
03474               8.00     1200.00
03475              12.00     1200.00
03476              36.00     1400.00
03477             232.00     1600.00
03478             180.00     2000.00
03479            -248.00     2200.00
03480            -248.00     2200.00
03481              -8.00     2400.00
03482             204.00     2400.00
03483             252.00     3000.00
03484              92.00     2800.00
03485            -248.00     3200.00
03486             172.00     3400.00
03487             252.00     3200.00
03488            -248.00     3800.00
03489            -248.00     3600.00
03490             252.00     3800.00
03491            -152.00     4600.00
03492              74.00     4000.00
03493              38.00     4800.00
03494            -248.00     5000.00
03495             240.00     4400.00
03496              54.00     5200.00
03497            -172.00     5200.00
03498             108.00     4800.00
03499            -114.00     6000.00
03500              12.00     5800.00
03501             156.00     5600.00
03502             -86.00     6400.00
03503             -84.00     6000.00
03504             -24.00     6200.00
03505             126.00     6800.00
03506             -20.00     6400.00
03507            -128.00     6800.00
03508             120.00     7000.00
03509             -60.00     7000.00
03510             -50.00     7200.00
03511             102.00     7400.00
03512             -78.00     7800.00
03513              20.00     7600.00
03514              26.00     7800.00
03515             -66.00     8000.00
03516               0.00     7800.00
03517              28.00     8400.00
03518              16.00     8400.00
03519             -56.00     8400.00
03520              12.00     8800.00
03521               6.00     8600.00
03522             -46.00     8800.00
03523              60.00     8800.00
03524             -26.00     9000.00
03525             -52.00     9000.00
03526              54.00     9200.00
03527             -12.00     9400.00
03528             -36.00     9400.00
03529               6.00     9600.00
03530               0.00     9600.00
03531             -10.00     9400.00
03532               0.00    10000.00
03533             -12.00     9800.00
03534             -26.00    10000.00
03535              20.00    10000.00
03536              -2.00    10000.00
03537             -36.00    10200.00
03538              16.00    10200.00
03539              -2.00    10400.00
03540             -20.00    10400.00
03541              12.00    10400.00
03542             -10.00    10400.00
03543             -28.00    10800.00
03544              14.00    10600.00
03545               8.00    10800.00
03546             -26.00    10800.00
03547              -8.00    10800.00
03548               0.00    11000.00
03549             -14.00    11000.00
03550               0.00    11000.00
03551               4.00    11000.00
03552             -16.00    11200.00
03553               0.00    11000.00
03554              -2.00    11000.00
03555             -18.00    11000.00
03556              -2.00    11000.00
03557               0.00    11200.00
03558             -12.00    11200.00
03559               0.00    11200.00
03560              -2.00    11400.00
03561             -18.00    11200.00
03562              -2.00    11200.00
03563               4.00    11200.00
03564             -10.00    11200.00
03565              -2.00    11200.00
03566               2.00    11200.00
03567             -10.00    11200.00
03568              -4.00    11200.00
03569               4.00    11200.00
03570              -8.00    11000.00
03571              -4.00    11200.00
03572               4.00    11000.00
03573              -4.00    11200.00
03574              -4.00    11200.00
03575              -2.00    11000.00
03576              -8.00    11000.00
03577              -2.00    10800.00
03578               4.00    10800.00
03579              -6.00    10800.00
03580              -4.00    10800.00
03581              -2.00    10600.00
03582              -6.00    10400.00
03583              -2.00    10400.00
03584               4.00    10400.00
03585              -6.00    10400.00
03586              -4.00    10400.00
03587              -2.00    10200.00
03588              -8.00    10200.00
03589              -4.00    10000.00
03590               0.00    10000.00
03591              -2.00    10000.00
03592               0.00     9800.00
03593              -2.00    10000.00
03594              -4.00     9600.00
03595              -6.00     9600.00
03596              -4.00     9600.00
03597              -4.00     9400.00
03598              -2.00     9400.00
03599              -2.00     9200.00
03600              -8.00     9200.00
03601              -6.00     8800.00
03602              -2.00     9000.00
03603              -4.00     8800.00
03604              -2.00     8600.00
03605               0.00     8600.00
03606              -2.00     8400.00
03607              -4.00     8400.00
03608              -2.00     8200.00
03609              -2.00     8000.00
03610              -2.00     8000.00
03611               0.00     7800.00
03612              -2.00     7600.00
03613              -4.00     7600.00
03614              -4.00     7400.00
03615              -4.00     7200.00
03616              -4.00     7000.00
03617               0.00     7000.00
03618              -2.00     6600.00
03619              -4.00     6400.00
03620               0.00     6400.00
03621              -4.00     6400.00
03622              -4.00     6200.00
03623              -2.00     6000.00
03624               0.00     6000.00
03625              -2.00     5800.00
03626              -2.00     5600.00
03627              -4.00     5400.00
03628              -4.00     5200.00
03629              -2.00     5200.00
03630               0.00     4800.00
03631              -2.00     4800.00
03632               0.00     4600.00
03633              -2.00     4600.00
03634              -4.00     4400.00
03635              -2.00     4000.00
03636              -4.00     4000.00
03637               0.00     3800.00
03638               2.00     3600.00
03639              -2.00     3200.00
03640              -2.00     3200.00
03641              -2.00     3000.00
03642              -2.00     2800.00
03643               0.00     2800.00
03644               4.00     2600.00
03645               4.00     2400.00
03646               0.00     2200.00
03647              -2.00     2000.00
03648               0.00     2000.00
03649              -2.00     1600.00
03650              -2.00     1400.00
03651               2.00     1400.00
03652               0.00     1000.00
03653              -2.00      800.00
03654               0.00      800.00
03655               0.00      600.00
03656               0.00      400.00
03657               4.00      200.00
03658               4.00        0.00
03659               4.00     -200.00
03660               6.00     -400.00
03661              22.00     -600.00
03662              16.00     -800.00
03663             -10.00     -800.00
03664             -12.00    -1000.00
03665               8.00    -1200.00
03666              16.00    -1200.00
03667              14.00    -1600.00
03668              78.00    -1600.00
03669             252.00    -2000.00
03670              70.00    -2600.00
03671            -248.00    -2400.00
03672            -248.00    -2600.00
03673             100.00    -2800.00
03674             140.00    -2600.00
03675             252.00    -2800.00
03676             190.00    -3600.00
03677            -248.00    -3200.00
03678             -80.00    -3400.00
03679             252.00    -4200.00
03680            -108.00    -3600.00
03681            -248.00    -4200.00
03682             116.00    -4800.00
03683              86.00    -4000.00
03684              92.00    -4800.00
03685             -52.00    -5000.00
03686            -194.00    -4600.00
03687              92.00    -5200.00
03688             124.00    -5400.00
03689               4.00    -5200.00
03690             -76.00    -5600.00
03691            -108.00    -5800.00
03692             124.00    -5800.00
03693             116.00    -6000.00
03694             -98.00    -6400.00
03695             -84.00    -6400.00
03696              28.00    -6400.00
03697              92.00    -6800.00
03698              10.00    -6800.00
03699             -76.00    -6800.00
03700             -26.00    -7400.00
03701              44.00    -7200.00
03702              58.00    -7200.00
03703             -40.00    -7600.00
03704             -32.00    -7600.00
03705              46.00    -8000.00
03706               4.00    -8000.00
03707              -6.00    -8000.00
03708             -12.00    -8200.00
03709             -10.00    -8200.00
03710              52.00    -8600.00
03711               8.00    -8800.00
03712             -42.00    -8800.00
03713             -10.00    -9000.00
03714              26.00    -8800.00
03715              20.00    -9200.00
03716              -2.00    -9000.00
03717              -8.00    -9400.00
03718              -8.00    -9600.00
03719              16.00    -9600.00
03720               8.00    -9600.00
03721             -20.00    -9600.00
03722               6.00    -9800.00
03723              22.00   -10000.00
03724              -4.00   -10000.00
03725              -8.00   -10200.00
03726              -4.00   -10200.00
03727              -2.00   -10400.00
03728               8.00   -10400.00
03729               6.00   -10400.00
03730              -6.00   -10600.00
03731               0.00   -10600.00
03732               6.00   -10600.00
03733              -8.00   -10600.00
03734              -4.00   -10600.00
03735               4.00   -10800.00
03736               4.00   -10800.00
03737               6.00   -10800.00
03738               0.00   -10800.00
03739             -14.00   -11200.00
03740              -2.00   -11000.00
03741               8.00   -11200.00
03742               0.00   -11200.00
03743               0.00   -11200.00
03744               4.00   -11200.00
03745              -6.00   -11200.00
03746              -4.00   -11200.00
03747               0.00   -11200.00
03748              -2.00   -11200.00
03749               4.00   -11200.00
03750               6.00   -11200.00
03751              -2.00   -11400.00
03752              -4.00   -11400.00
03753               0.00   -11200.00
03754              -2.00   -11400.00
03755               4.00   -11200.00
03756               4.00   -11200.00
03757               0.00   -11400.00
03758              -4.00   -11400.00
03759              -2.00   -11400.00
03760              -4.00   -11400.00
03761               0.00   -11200.00
03762               6.00   -11200.00
03763               4.00   -11200.00
03764              -2.00   -11200.00
03765               0.00   -11200.00
03766              -4.00   -11200.00
03767              -4.00   -11000.00
03768               0.00   -11000.00
03769               4.00   -11000.00
03770               2.00   -11000.00
03771              -2.00   -10800.00
03772              -2.00   -10800.00
03773              -4.00   -10800.00
03774               0.00   -10800.00
03775               0.00   -10600.00
03776               4.00   -10600.00
03777               0.00   -10400.00
03778              -4.00   -10400.00
03779              -4.00   -10400.00
03780              -2.00   -10400.00
03781              -2.00   -10200.00
03782               2.00   -10000.00
03783               0.00   -10000.00
03784               0.00   -10000.00
03785              -4.00    -9800.00
03786              -4.00    -9800.00
03787              -4.00    -9600.00
03788               0.00    -9600.00
03789               0.00    -9400.00
03790               0.00    -9400.00
03791              -4.00    -9400.00
03792              -4.00    -9200.00
03793              -8.00    -9200.00
03794              -4.00    -8800.00
03795               0.00    -8800.00
03796              -2.00    -8800.00
03797              -2.00    -8800.00
03798              -6.00    -8600.00
03799              -8.00    -8400.00
03800              -4.00    -8200.00
03801              -4.00    -8000.00
03802              -4.00    -8000.00
03803              -2.00    -7800.00
03804              -4.00    -7600.00
03805              -8.00    -7600.00
03806              -8.00    -7400.00
03807              -4.00    -7400.00
03808              -4.00    -7400.00
03809              -2.00    -7000.00
03810              -4.00    -6800.00
03811              -6.00    -6800.00
03812              -8.00    -6600.00
03813              -8.00    -6400.00
03814              -4.00    -6200.00
03815              -4.00    -6200.00
03816              -4.00    -6000.00
03817              -4.00    -5800.00
03818              -6.00    -5800.00
03819              -4.00    -5400.00
03820             -10.00    -5200.00
03821              -6.00    -5200.00
03822              -2.00    -5000.00
03823              -4.00    -4800.00
03824              -4.00    -4800.00
03825              -8.00    -4600.00
03826             -10.00    -4400.00
03827              -8.00    -4200.00
03828              -4.00    -4000.00
03829               0.00    -3800.00
03830              -4.00    -3600.00
03831              -4.00    -3400.00
03832              -4.00    -3200.00
03833              -8.00    -3200.00
03834              -8.00    -3000.00
03835              -4.00    -2800.00
03836              -4.00    -2600.00
03837              -4.00    -2400.00
03838              -4.00    -2000.00
03839             -10.00    -2000.00
03840              -4.00    -1800.00
03841              -8.00    -1800.00
03842              -4.00    -1600.00
03843              -2.00    -1200.00
03844              -4.00    -1000.00
03845              -8.00    -1000.00
03846              -8.00     -800.00
03847              -8.00     -600.00
03848              -8.00     -400.00
03849              -4.00     -200.00
03850               0.00        0.00
03851              -4.00        0.00
03852              14.00      400.00
03853              20.00      400.00
03854              -8.00      600.00
03855             -20.00     1000.00
03856              -4.00     1000.00
03857              12.00     1200.00
03858              12.00     1400.00
03859             108.00     1600.00
03860             252.00     2000.00
03861             -76.00     2200.00
03862            -248.00     2200.00
03863            -248.00     2400.00
03864             102.00     2200.00
03865             252.00     2600.00
03866             252.00     2800.00
03867            -248.00     2800.00
03868            -248.00     3200.00
03869             252.00     3200.00
03870             252.00     3600.00
03871            -248.00     3800.00
03872             198.00     3600.00
03873             196.00     4400.00
03874            -172.00     4000.00
03875             202.00     4200.00
03876            -228.00     4800.00
03877             -72.00     4600.00
03878             252.00     4600.00
03879            -170.00     5600.00
03880             -10.00     5000.00
03881              40.00     5200.00
03882            -138.00     6200.00
03883             152.00     5400.00
03884              38.00     6000.00
03885            -112.00     6400.00
03886             -58.00     6000.00
03887              44.00     6600.00
03888             116.00     6600.00
03889            -140.00     6400.00
03890               0.00     7000.00
03891              86.00     7000.00
03892            -130.00     7200.00
03893              70.00     7200.00
03894              16.00     7600.00
03895             -66.00     7800.00
03896              64.00     7400.00
03897             -38.00     8000.00
03898             -40.00     7800.00
03899              20.00     8000.00
03900              30.00     8400.00
03901             -20.00     8200.00
03902             -42.00     8600.00
03903              36.00     8600.00
03904             -42.00     8600.00
03905               8.00     8800.00
03906              46.00     8800.00
03907             -74.00     9200.00
03908               8.00     9000.00
03909              40.00     9200.00
03910             -42.00     9400.00
03911             -10.00     9200.00
03912              12.00     9600.00
03913              -4.00     9400.00
03914              -4.00     9600.00
03915               4.00    10000.00
03916             -24.00     9800.00
03917              -6.00    10000.00
03918              28.00    10000.00
03919             -26.00    10200.00
03920             -16.00    10200.00
03921              20.00    10200.00
03922             -20.00    10400.00
03923              -4.00    10400.00
03924               8.00    10400.00
03925             -28.00    10400.00
03926             -10.00    10600.00
03927              24.00    10800.00
03928             -10.00    10800.00
03929             -20.00    10800.00
03930               4.00    11000.00
03931             -10.00    10800.00
03932             -10.00    11000.00
03933               8.00    11000.00
03934              -8.00    11000.00
03935             -10.00    11000.00
03936               4.00    11000.00
03937             -10.00    11200.00
03938             -10.00    11000.00
03939               0.00    11200.00
03940              -8.00    11200.00
03941              -2.00    11200.00
03942               6.00    11200.00
03943             -10.00    11200.00
03944             -18.00    11200.00
03945              -2.00    11200.00
03946               0.00    11200.00
03947              -4.00    11200.00
03948               0.00    11200.00
03949              -8.00    11200.00
03950             -16.00    11200.00
03951              -2.00    11200.00
03952               4.00    11000.00
03953              -4.00    11200.00
03954              -4.00    11000.00
03955              -4.00    11000.00
03956              -8.00    11200.00
03957              -4.00    11000.00
03958              -4.00    10800.00
03959              -4.00    10800.00
03960              -2.00    10800.00
03961              -2.00    10800.00
03962              -4.00    11000.00
03963              -2.00    10800.00
03964              -4.00    10800.00
03965              -6.00    10600.00
03966               0.00    10400.00
03967               0.00    10600.00
03968              -8.00    10400.00
03969              -2.00    10400.00
03970              -4.00    10200.00
03971              -6.00    10200.00
03972              -4.00    10200.00
03973               0.00    10000.00
03974              -2.00    10000.00
03975              -2.00    10000.00
03976              -2.00     9800.00
03977              -4.00     9600.00
03978              -2.00     9600.00
03979              -2.00     9400.00
03980              -2.00     9400.00
03981               0.00     9200.00
03982              -4.00     9200.00
03983              -4.00     9200.00
03984              -4.00     9000.00
03985              -4.00     8800.00
03986              -4.00     8600.00
03987              -2.00     8600.00
03988              -2.00     8400.00
03989              -4.00     8400.00
03990              -4.00     8400.00
03991              -4.00     8000.00
03992              -4.00     8000.00
03993              -2.00     7800.00
03994               4.00     7600.00
03995              -4.00     7600.00
03996              -4.00     7600.00
03997              -4.00     7600.00
03998              -4.00     7200.00
03999              -4.00     7000.00
04000               0.00     6800.00
04001              -4.00     6800.00
04002              -4.00     6600.00
04003              -2.00     6400.00
04004              -4.00     6400.00
04005              -4.00     6000.00
04006              -2.00     6000.00
04007               0.00     5600.00
04008              -2.00     5800.00
04009              -4.00     5400.00
04010              -2.00     5400.00
04011              -2.00     5200.00
04012               0.00     5200.00
04013               2.00     4800.00
04014              -2.00     4800.00
04015               0.00     4600.00
04016              -2.00     4400.00
04017              -4.00     4200.00
04018              -2.00     4000.00
04019               0.00     3800.00
04020              -2.00     3600.00
04021               0.00     3600.00
04022               0.00     3200.00
04023              -2.00     3200.00
04024              -2.00     3000.00
04025               0.00     2800.00
04026               0.00     2600.00
04027               4.00     2400.00
04028              -2.00     2200.00
04029               0.00     2000.00
04030               0.00     2000.00
04031               0.00     1800.00
04032              -2.00     1600.00
04033               2.00     1400.00
04034               4.00     1200.00
04035               4.00     1000.00
04036              -2.00      800.00
04037              -2.00      600.00
04038               0.00      400.00
04039               0.00      200.00
04040               0.00        0.00
04041               4.00     -200.00
04042               6.00     -200.00
04043              12.00     -400.00
04044              26.00     -600.00
04045               6.00     -800.00
04046             -16.00     -800.00
04047              -2.00    -1200.00
04048              16.00    -1200.00
04049              14.00    -1600.00
04050              28.00    -1600.00
04051             160.00    -1600.00
04052             244.00    -2400.00
04053            -174.00    -2800.00
04054            -248.00    -2600.00
04055            -122.00    -2800.00
04056             160.00    -2800.00
04057             176.00    -2600.00
04058             252.00    -3200.00
04059            -236.00    -3600.00
04060            -248.00    -3000.00
04061             252.00    -4000.00
04062             252.00    -4000.00
04063            -248.00    -3400.00
04064            -114.00    -4600.00
04065             156.00    -4400.00
04066              56.00    -4200.00
04067              76.00    -5200.00
04068            -180.00    -4800.00
04069             -74.00    -4800.00
04070             156.00    -5400.00
04071              54.00    -5200.00
04072             -26.00    -5600.00
04073            -124.00    -5800.00
04074             -16.00    -5800.00
04075             180.00    -6000.00
04076               0.00    -6200.00
04077            -122.00    -6600.00
04078             -30.00    -6600.00
04079              70.00    -6600.00
04080              76.00    -6800.00
04081             -48.00    -6800.00
04082             -60.00    -7200.00
04083              10.00    -7400.00
04084              68.00    -7200.00
04085              18.00    -7600.00
04086             -60.00    -7600.00
04087              14.00    -7800.00
04088              36.00    -8000.00
04089             -10.00    -8000.00
04090              -4.00    -8200.00
04091             -20.00    -8200.00
04092              22.00    -8400.00
04093              46.00    -8600.00
04094             -26.00    -8800.00
04095             -32.00    -9000.00
04096              12.00    -9000.00
04097              28.00    -9000.00
04098               8.00    -9200.00
04099              -4.00    -9200.00
04100             -10.00    -9400.00
04101               4.00    -9600.00
04102              20.00    -9600.00
04103              -8.00    -9600.00
04104             -12.00    -9800.00
04105              22.00    -9800.00
04106              12.00   -10000.00
04107              -8.00   -10000.00
04108              -2.00   -10200.00
04109              -2.00   -10200.00
04110               4.00   -10400.00
04111              16.00   -10200.00
04112               0.00   -10400.00
04113              -8.00   -10600.00
04114               0.00   -10600.00
04115              -4.00   -10600.00
04116              -6.00   -10600.00
04117              10.00   -10600.00
04118              14.00   -10800.00
04119              10.00   -10800.00
04120               0.00   -11000.00
04121             -16.00   -11200.00
04122             -18.00   -11000.00
04123               6.00   -11200.00
04124              12.00   -11200.00
04125               4.00   -11200.00
04126               4.00   -11200.00
04127              -4.00   -11200.00
04128             -10.00   -11200.00
04129               0.00   -11200.00
04130               4.00   -11400.00
04131               0.00   -11200.00
04132               4.00   -11400.00
04133               4.00   -11200.00
04134              -4.00   -11200.00
04135              -4.00   -11400.00
04136               0.00   -11400.00
04137               0.00   -11400.00
04138               4.00   -11400.00
04139               4.00   -11400.00
04140              -2.00   -11400.00
04141               0.00   -11200.00
04142              -4.00   -11400.00
04143              -4.00   -11200.00
04144               4.00   -11200.00
04145               6.00   -11000.00
04146               0.00   -11200.00
04147              -2.00   -11200.00
04148              -2.00   -11200.00
04149              -8.00   -11000.00
04150              -4.00   -11000.00
04151               6.00   -10800.00
04152               0.00   -10800.00
04153               0.00   -10800.00
04154              -2.00   -10800.00
04155              -4.00   -10800.00
04156              -4.00   -10800.00
04157               0.00   -10400.00
04158               0.00   -10600.00
04159               0.00   -10400.00
04160               0.00   -10600.00
04161              -4.00   -10600.00
04162              -4.00   -10400.00
04163              -2.00   -10200.00
04164              -2.00   -10000.00
04165               0.00   -10200.00
04166               2.00   -10000.00
04167              -2.00   -10000.00
04168              -4.00    -9800.00
04169              -4.00    -9800.00
04170              -2.00    -9800.00
04171               0.00    -9600.00
04172               0.00    -9600.00
04173              -2.00    -9400.00
04174              -4.00    -9200.00
04175              -4.00    -9200.00
04176              -2.00    -9000.00
04177              -4.00    -9000.00
04178               0.00    -8800.00
04179               0.00    -8800.00
04180              -4.00    -8600.00
04181              -4.00    -8400.00
04182              -8.00    -8200.00
04183              -4.00    -8200.00
04184              -2.00    -8000.00
04185              -2.00    -8000.00
04186              -4.00    -7600.00
04187              -4.00    -7600.00
04188              -4.00    -7600.00
04189              -8.00    -7400.00
04190              -4.00    -7200.00
04191              -4.00    -7200.00
04192              -4.00    -7000.00
04193              -4.00    -6800.00
04194              -8.00    -6600.00
04195              -8.00    -6600.00
04196              -4.00    -6400.00
04197              -4.00    -6000.00
04198              -2.00    -6000.00
04199              -4.00    -5800.00
04200              -4.00    -5600.00
04201              -6.00    -5600.00
04202              -8.00    -5400.00
04203              -6.00    -5200.00
04204              -4.00    -5200.00
04205              -4.00    -5000.00
04206              -4.00    -4800.00
04207              -6.00    -4400.00
04208              -6.00    -4400.00
04209              -8.00    -4200.00
04210              -4.00    -4000.00
04211              -2.00    -3800.00
04212              -2.00    -3800.00
04213              -4.00    -3400.00
04214              -8.00    -3400.00
04215              -8.00    -3200.00
04216              -6.00    -3000.00
04217              -8.00    -2800.00
04218              -4.00    -2600.00
04219              -4.00    -2600.00
04220              -4.00    -2400.00
04221              -8.00    -2200.00
04222              -8.00    -2000.00
04223              -4.00    -1800.00
04224              -4.00    -1600.00
04225              -4.00    -1400.00
04226              -2.00    -1000.00
04227              -6.00    -1000.00
04228              -8.00     -800.00
04229              -8.00     -600.00
04230              -4.00     -400.00
04231              -2.00     -400.00
04232              -4.00        0.00
04233              -2.00        0.00
04234               4.00      400.00
04235              20.00      400.00
04236              12.00      400.00
04237             -16.00      800.00
04238             -12.00     1000.00
04239               6.00     1200.00
04240              14.00     1200.00
04241              30.00     1600.00
04242             220.00     2000.00
04243             206.00     2200.00
04244            -248.00     2200.00
04245            -248.00     2400.00
04246             -28.00     2400.00
04247             186.00     2400.00
04248             252.00     2800.00
04249             182.00     2800.00
04250            -248.00     3000.00
04251              54.00     3200.00
04252             252.00     3200.00
04253            -248.00     3800.00
04254            -248.00     3600.00
04255             252.00     3800.00
04256            -122.00     4400.00
04257              44.00     4000.00
04258              70.00     4600.00
04259            -248.00     5200.00
04260             214.00     4600.00
04261              92.00     5200.00
04262            -188.00     5400.00
04263             104.00     5000.00
04264            -100.00     6000.00
04265             -12.00     5800.00
04266             164.00     5400.00
04267             -80.00     6400.00
04268             -90.00     6000.00
04269             -32.00     6200.00
04270             120.00     6800.00
04271               0.00     6400.00
04272            -140.00     6800.00
04273             118.00     7000.00
04274             -42.00     7200.00
04275             -66.00     7000.00
04276             104.00     7400.00
04277             -72.00     7800.00
04278               8.00     7400.00
04279              34.00     7800.00
04280             -68.00     8000.00
04281              -4.00     7800.00
04282              28.00     8400.00
04283              18.00     8200.00
04284             -50.00     8400.00
04285               4.00     8800.00
04286              12.00     8600.00
04287             -50.00     8800.00
04288              60.00     8800.00
04289             -20.00     8800.00
04290             -58.00     9200.00
04291              54.00     9200.00
04292              -8.00     9400.00
04293             -36.00     9200.00
04294               8.00     9600.00
04295               4.00     9600.00
04296             -10.00     9600.00
04297               4.00    10000.00
04298             -10.00    10000.00
04299             -26.00    10000.00
04300              20.00    10000.00
04301               6.00    10200.00
04302             -34.00    10200.00
04303              12.00    10200.00
04304               4.00    10400.00
04305             -20.00    10400.00
04306              12.00    10400.00
04307              -4.00    10600.00
04308             -26.00    10400.00
04309              12.00    10800.00
04310              14.00    10800.00
04311             -24.00    10600.00
04312              -6.00    11000.00
04313               0.00    11000.00
04314             -16.00    10800.00
04315               4.00    11000.00
04316               4.00    11000.00
04317             -16.00    11000.00
04318              -2.00    11000.00
04319              -2.00    11200.00
04320             -14.00    11200.00
04321              -2.00    11000.00
04322               4.00    11000.00
04323             -10.00    11200.00
04324               0.00    11200.00
04325              -4.00    11200.00
04326             -18.00    11200.00
04327              -4.00    11200.00
04328               4.00    11200.00
04329             -10.00    11000.00
04330              -4.00    11200.00
04331               0.00    11200.00
04332             -10.00    11200.00
04333              -8.00    11200.00
04334               4.00    11200.00
04335             -10.00    11000.00
04336              -6.00    11000.00
04337               0.00    11000.00
04338              -8.00    11000.00
04339              -6.00    11000.00
04340              -4.00    10800.00
04341             -10.00    11000.00
04342              -2.00    10800.00
04343               0.00    10800.00
04344              -8.00    10800.00
04345              -6.00    10800.00
04346              -4.00    10600.00
04347              -8.00    10600.00
04348              -4.00    10400.00
04349               0.00    10600.00
04350              -8.00    10400.00
04351              -8.00    10400.00
04352               4.00    10400.00
04353               0.00    10200.00
04354              -4.00    10200.00
04355              -2.00    10000.00
04356              -6.00    10000.00
04357              -2.00     9800.00
04358               0.00    10000.00
04359              -4.00     9600.00
04360              -4.00     9600.00
04361              -8.00     9600.00
04362              -2.00     9600.00
04363              -2.00     9400.00
04364               4.00     9200.00
04365              -4.00     9200.00
04366              -4.00     9000.00
04367              -4.00     8800.00
04368              -2.00     8800.00
04369              -2.00     8600.00
04370               4.00     8600.00
04371              -4.00     8400.00
04372              -8.00     8400.00
04373              -2.00     8200.00
04374              -4.00     8000.00
04375               0.00     7800.00
04376              -2.00     7800.00
04377              -2.00     7600.00
04378              -4.00     7600.00
04379              -4.00     7400.00
04380              -4.00     7400.00
04381              -4.00     7000.00
04382              -2.00     7000.00
04383              -2.00     7000.00
04384              -2.00     6800.00
04385              -2.00     6400.00
04386              -4.00     6400.00
04387              -4.00     6200.00
04388              -4.00     6000.00
04389               0.00     5800.00
04390              -4.00     5600.00
04391              -4.00     5600.00
04392              -4.00     5600.00
04393              -4.00     5200.00
04394              -2.00     5200.00
04395              -2.00     5000.00
04396              -2.00     4800.00
04397              -2.00     4600.00
04398              -2.00     4400.00
04399              -4.00     4200.00
04400              -4.00     4000.00
04401              -4.00     3800.00
04402               0.00     3600.00
04403               2.00     3600.00
04404               0.00     3400.00
04405              -2.00     3200.00
04406              -4.00     3200.00
04407              -2.00     2800.00
04408               0.00     2800.00
04409               0.00     2400.00
04410               0.00     2400.00
04411              -2.00     2200.00
04412              -2.00     2000.00
04413               0.00     1800.00
04414               0.00     1600.00
04415               0.00     1600.00
04416               0.00     1200.00
04417               4.00     1200.00
04418               0.00     1000.00
04419              -2.00      800.00
04420               0.00      600.00
04421               0.00      400.00
04422               0.00        0.00
04423               6.00        0.00
04424               6.00     -200.00
04425               6.00     -200.00
04426              22.00     -400.00
04427              20.00     -800.00
04428              -4.00    -1000.00
04429             -12.00    -1000.00
04430              12.00    -1200.00
04431              18.00    -1400.00
04432              14.00    -1400.00
04433              70.00    -1600.00
04434             246.00    -2000.00
04435             102.00    -2600.00
04436            -248.00    -2600.00
04437            -248.00    -2800.00
04438              84.00    -2800.00
04439             140.00    -2800.00
04440             252.00    -2800.00
04441             238.00    -3600.00
04442            -248.00    -3200.00
04443            -154.00    -3200.00
04444             252.00    -4400.00
04445             -42.00    -3600.00
04446            -248.00    -4000.00
04447             100.00    -4800.00
04448              96.00    -4000.00
04449              88.00    -4800.00
04450             -34.00    -5000.00
04451            -202.00    -4600.00
04452              76.00    -5200.00
04453             132.00    -5400.00
04454               6.00    -5200.00
04455             -66.00    -5600.00
04456            -116.00    -5600.00
04457             108.00    -5800.00
04458             128.00    -6200.00
04459             -88.00    -6400.00
04460             -90.00    -6600.00
04461              20.00    -6400.00
04462              94.00    -6800.00
04463              20.00    -6800.00
04464             -76.00    -7000.00
04465             -32.00    -7200.00
04466              38.00    -7200.00
04467              60.00    -7400.00
04468             -36.00    -7600.00
04469             -40.00    -7600.00
04470              44.00    -8000.00
04471               6.00    -8200.00
04472              -4.00    -8000.00
04473             -12.00    -8400.00
04474             -10.00    -8400.00
04475              46.00    -8400.00
04476              16.00    -8600.00
04477             -42.00    -8800.00
04478             -16.00    -9000.00
04479              28.00    -9000.00
04480              20.00    -9200.00
04481              -2.00    -9200.00
04482              -8.00    -9200.00
04483              -8.00    -9200.00
04484              16.00    -9600.00
04485              10.00    -9600.00
04486             -20.00    -9600.00
04487               4.00    -9800.00
04488              22.00    -9800.00
04489               0.00   -10000.00
04490              -4.00   -10000.00
04491               0.00   -10000.00
04492              -2.00   -10200.00
04493              12.00   -10400.00
04494              10.00   -10400.00
04495              -4.00   -10400.00
04496               2.00   -10600.00
04497               6.00   -10600.00
04498              -4.00   -10800.00
04499              -2.00   -10800.00
04500               6.00   -10800.00
04501               4.00   -10800.00
04502               8.00   -10800.00
04503               4.00   -10800.00
04504             -10.00   -10800.00
04505              -2.00   -11000.00
04506               6.00   -11000.00
04507               0.00   -11200.00
04508               2.00   -11200.00
04509               4.00   -11400.00
04510              -6.00   -11200.00
04511              -4.00   -11200.00
04512               2.00   -11200.00
04513               0.00   -11200.00
04514               4.00   -11400.00
04515               6.00   -11200.00
04516               0.00   -11400.00
04517              -8.00   -11400.00
04518              -2.00   -11200.00
04519               0.00   -11400.00
04520               0.00   -11400.00
04521               6.00   -11200.00
04522               0.00   -11400.00
04523              -2.00   -11200.00
04524              -2.00   -11200.00
04525              -4.00   -11400.00
04526              -2.00   -11200.00
04527               4.00   -11200.00
04528               4.00   -11200.00
04529              -4.00   -11200.00
04530              -2.00   -11000.00
04531              -4.00   -11200.00
04532              -4.00   -11200.00
04533               0.00   -11200.00
04534               6.00   -10800.00
04535               2.00   -10800.00
04536              -2.00   -10800.00
04537              -4.00   -10800.00
04538              -4.00   -10800.00
04539              -2.00   -10600.00
04540               0.00   -10600.00
04541               0.00   -10400.00
04542               0.00   -10400.00
04543              -4.00   -10400.00
04544              -8.00   -10400.00
04545              -4.00   -10400.00
04546              -2.00   -10200.00
04547               0.00   -10200.00
04548               0.00   -10000.00
04549               0.00   -10000.00
04550              -4.00   -10000.00
04551              -4.00    -9800.00
04552              -4.00    -9800.00
04553               0.00    -9600.00
04554               0.00    -9600.00
04555               2.00    -9400.00
04556              -4.00    -9200.00
04557              -4.00    -9200.00
04558              -4.00    -9000.00
04559              -4.00    -9000.00
04560               0.00    -8800.00
04561               2.00    -8800.00
04562              -4.00    -8600.00
04563              -4.00    -8400.00
04564              -4.00    -8200.00
04565              -4.00    -8200.00
04566              -4.00    -8000.00
04567               0.00    -8000.00
04568               0.00    -7800.00
04569              -2.00    -7600.00
04570              -4.00    -7600.00
04571              -6.00    -7600.00
04572              -4.00    -7400.00
04573              -2.00    -7200.00
04574              -2.00    -7000.00
04575              -4.00    -6800.00
04576              -4.00    -6600.00
04577              -8.00    -6600.00
04578              -8.00    -6600.00
04579              -4.00    -6200.00
04580              -4.00    -6000.00
04581              -2.00    -6000.00
04582              -4.00    -5800.00
04583              -4.00    -5400.00
04584              -8.00    -5600.00
04585              -6.00    -5200.00
04586              -4.00    -5200.00
04587              -4.00    -5000.00
04588              -4.00    -5000.00
04589              -6.00    -4800.00
04590              -4.00    -4400.00
04591             -10.00    -4200.00
04592              -8.00    -4200.00
04593              -4.00    -4000.00
04594              -4.00    -3800.00
04595              -2.00    -3600.00
04596              -8.00    -3400.00
04597              -6.00    -3200.00
04598             -10.00    -3200.00
04599              -8.00    -2800.00
04600              -6.00    -2800.00
04601              -2.00    -2600.00
04602              -4.00    -2400.00
04603              -4.00    -2200.00
04604              -8.00    -2000.00
04605              -8.00    -1800.00
04606              -4.00    -1800.00
04607              -4.00    -1600.00
04608              -4.00    -1200.00
04609              -4.00    -1000.00
04610              -4.00    -1000.00
04611              -8.00     -800.00
04612              -6.00     -600.00
04613              -4.00     -400.00
04614              -4.00     -200.00
04615               4.00        0.00
04616               0.00        0.00
04617              12.00      400.00
04618              22.00      600.00
04619              -2.00      600.00
04620             -24.00     1000.00
04621              -4.00     1200.00
04622              14.00     1200.00
04623              12.00     1400.00
04624              96.00     1600.00
04625             252.00     2000.00
04626             -34.00     2200.00
04627            -248.00     2400.00
04628            -248.00     2400.00
04629              94.00     2400.00
04630             252.00     2600.00
04631             252.00     3000.00
04632            -248.00     2800.00
04633            -248.00     3400.00
04634             252.00     3200.00
04635             252.00     3400.00
04636            -248.00     3600.00
04637             142.00     3600.00
04638             240.00     4400.00
04639            -186.00     4200.00
04640             198.00     4000.00
04641            -196.00     4800.00
04642            -114.00     4600.00
04643             252.00     4600.00
04644            -148.00     5400.00
04645             -32.00     5000.00
04646              56.00     5200.00
04647            -144.00     6200.00
04648             138.00     5400.00
04649              56.00     5800.00
04650            -114.00     6400.00
04651             -64.00     5600.00
04652              36.00     6600.00
04653             124.00     6400.00
04654            -132.00     6600.00
04655             -18.00     7000.00
04656             100.00     6800.00
04657            -128.00     7200.00
04658              56.00     7200.00
04659              30.00     7600.00
04660             -76.00     7600.00
04661              62.00     7400.00
04662             -34.00     8000.00
04663             -44.00     7800.00
04664              20.00     7800.00
04665              32.00     8400.00
04666             -18.00     8000.00
04667             -44.00     8600.00
04668              38.00     8600.00
04669             -36.00     8600.00
04670              -2.00     8800.00
04671              54.00     8800.00
04672             -72.00     9000.00
04673               0.00     9000.00
04674              42.00     9400.00
04675             -40.00     9400.00
04676             -14.00     9200.00
04677              12.00     9600.00
04678              -6.00     9600.00
04679              -4.00     9600.00
04680               4.00    10000.00
04681             -22.00     9800.00
04682             -10.00    10000.00
04683              28.00    10000.00
04684             -24.00    10000.00
04685             -18.00    10200.00
04686              22.00    10200.00
04687             -18.00    10400.00
04688              -8.00    10400.00
04689              10.00    10400.00
04690             -26.00    10600.00
04691             -10.00    10400.00
04692              22.00    10800.00
04693              -8.00    10800.00
04694             -20.00    10800.00
04695               6.00    10800.00
04696             -10.00    10800.00
04697             -10.00    11000.00
04698              10.00    11000.00
04699              -6.00    11200.00
04700             -12.00    11000.00
04701               4.00    11200.00
04702              -8.00    11200.00
04703             -10.00    11200.00
04704               4.00    11200.00
04705              -4.00    11000.00
04706              -8.00    11200.00
04707               4.00    11200.00
04708             -10.00    11200.00
04709             -16.00    11200.00
04710               4.00    11200.00
04711              -2.00    11200.00
04712             -10.00    11200.00
04713               0.00    11200.00
04714              -6.00    11200.00
04715             -12.00    11200.00
04716              -2.00    11200.00
04717              -4.00    11000.00
04718             -10.00    11200.00
04719              -2.00    11000.00
04720              -2.00    11200.00
04721             -10.00    11000.00
04722              -4.00    11000.00
04723              -4.00    11000.00
04724              -8.00    11000.00
04725               0.00    10800.00
04726              -2.00    10800.00
04727              -8.00    10800.00
04728              -4.00    10600.00
04729              -8.00    10800.00
04730              -8.00    10600.00
04731               0.00    10400.00
04732              -4.00    10400.00
04733              -8.00    10400.00
04734              -4.00    10200.00
04735              -2.00    10200.00
04736              -8.00    10000.00
04737              -2.00    10200.00
04738               0.00    10200.00
04739              -2.00     9800.00
04740              -2.00     9800.00
04741              -4.00     9800.00
04742             -10.00     9600.00
04743              -4.00     9600.00
04744               0.00     9400.00
04745              -4.00     9400.00
04746               0.00     9200.00
04747              -4.00     9200.00
04748              -4.00     9200.00
04749              -2.00     8800.00
04750              -2.00     8800.00
04751              -4.00     8800.00
04752              -2.00     8600.00
04753               4.00     8600.00
04754              -4.00     8400.00
04755              -4.00     8400.00
04756               0.00     8000.00
04757              -4.00     8000.00
04758              -2.00     7800.00
04759               0.00     7800.00
04760              -2.00     7600.00
04761              -4.00     7600.00
04762              -2.00     7200.00
04763               0.00     7200.00
04764              -2.00     7000.00
04765               0.00     7000.00
04766              -2.00     6800.00
04767              -2.00     6800.00
04768              -2.00     6400.00
04769              -4.00     6200.00
04770              -4.00     6200.00
04771              -2.00     6000.00
04772               0.00     5800.00
04773              -2.00     5600.00
04774              -2.00     5600.00
04775              -4.00     5400.00
04776              -2.00     5200.00
04777               0.00     5000.00
04778              -2.00     4800.00
04779              -2.00     4600.00
04780               0.00     4600.00
04781              -4.00     4400.00
04782              -2.00     4200.00
04783              -2.00     4000.00
04784              -2.00     3800.00
04785              -2.00     3600.00
04786               0.00     3400.00
04787               0.00     3200.00
04788              -4.00     3000.00
04789              -2.00     3000.00
04790              -2.00     2800.00
04791               0.00     2800.00
04792               2.00     2400.00
04793               0.00     2200.00
04794              -2.00     2200.00
04795              -2.00     2000.00
04796               0.00     1800.00
04797               0.00     1600.00
04798               2.00     1400.00
04799               4.00     1200.00
04800               2.00     1000.00
04801               0.00     1000.00
04802              -2.00      600.00
04803               2.00      400.00
04804              -2.00      400.00
04805               0.00        0.00
04806               6.00     -200.00
04807               6.00     -200.00
04808              12.00     -400.00
04809              28.00     -400.00
04810               8.00     -800.00
04811             -14.00    -1000.00
04812              -2.00    -1000.00
04813              16.00    -1200.00
04814              14.00    -1400.00
04815              28.00    -1600.00
04816             150.00    -1600.00
04817             252.00    -2400.00
04818            -142.00    -2600.00
04819            -248.00    -2600.00
04820            -152.00    -2800.00
04821             160.00    -2800.00
04822             168.00    -2400.00
04823             252.00    -3200.00
04824            -172.00    -3600.00
04825            -248.00    -3000.00
04826             252.00    -4000.00
04827             252.00    -4000.00
04828            -248.00    -3400.00
04829            -146.00    -4400.00
04830             156.00    -4400.00
04831              60.00    -4200.00
04832              88.00    -5200.00
04833            -164.00    -4800.00
04834             -90.00    -4800.00
04835             152.00    -5400.00
04836              56.00    -5200.00
04837             -18.00    -5600.00
04838            -116.00    -5800.00
04839             -28.00    -5800.00
04840             174.00    -6000.00
04841              16.00    -6200.00
04842            -124.00    -6400.00
04843             -32.00    -6400.00
04844              70.00    -6600.00
04845              78.00    -6800.00
04846             -44.00    -6800.00
04847             -66.00    -7200.00
04848               4.00    -7400.00
04849              62.00    -7200.00
04850              28.00    -7600.00
04851             -64.00    -7600.00
04852               6.00    -7800.00
04853              38.00    -8000.00
04854             -12.00    -8000.00
04855              -2.00    -8200.00
04856             -20.00    -8200.00
04857              14.00    -8400.00
04858              44.00    -8600.00
04859             -22.00    -8800.00
04860             -36.00    -8800.00
04861               8.00    -9000.00
04862              28.00    -9000.00
04863               6.00    -9200.00
04864              -4.00    -9200.00
04865             -10.00    -9200.00
04866               0.00    -9400.00
04867              20.00    -9600.00
04868              -6.00    -9800.00
04869             -16.00    -9800.00
04870              18.00   -10000.00
04871              14.00   -10000.00
04872              -8.00   -10000.00
04873              -4.00   -10000.00
04874              -2.00   -10200.00
04875               0.00   -10400.00
04876              14.00   -10200.00
04877               4.00   -10400.00
04878              -4.00   -10400.00
04879               6.00   -10400.00
04880               4.00   -10600.00
04881             -10.00   -10800.00
04882               0.00   -10800.00
04883               4.00   -11000.00
04884               6.00   -10800.00
04885               6.00   -11200.00
04886              -4.00   -10800.00
04887             -10.00   -11200.00
04888               4.00   -11000.00
04889               6.00   -11000.00
04890              -2.00   -11200.00
04891               8.00   -11200.00
04892               0.00   -11400.00
04893              -4.00   -11200.00
04894               0.00   -11400.00
04895               2.00   -11200.00
04896               0.00   -11200.00
04897               6.00   -11400.00
04898               4.00   -11400.00
04899              -4.00   -11600.00
04900              -6.00   -11400.00
04901               0.00   -11200.00
04902              -2.00   -11400.00
04903               4.00   -11400.00
04904               4.00   -11200.00
04905              -4.00   -11400.00
04906              -2.00   -11200.00
04907              -4.00   -11400.00
04908              -4.00   -11400.00
04909               0.00   -11200.00
04910               6.00   -11200.00
04911               0.00   -11200.00
04912              -2.00   -11200.00
04913              -4.00   -11200.00
04914              -6.00   -11200.00
04915              -4.00   -11000.00
04916               4.00   -11000.00
04917              -2.00   -11000.00
04918              -4.00   -10800.00
04919              -2.00   -10800.00
04920              -4.00   -10800.00
04921              -4.00   -10800.00
04922               0.00   -10600.00
04923              -2.00   -10600.00
04924               2.00   -10600.00
04925               0.00   -10400.00
04926              -4.00   -10600.00
04927              -6.00   -10400.00
04928              -2.00   -10400.00
04929              -2.00   -10200.00
04930               0.00   -10000.00
04931              -2.00   -10000.00
04932              -4.00    -9800.00
04933              -8.00    -9800.00
04934              -4.00    -9800.00
04935              -2.00    -9600.00
04936               2.00    -9600.00
04937               4.00    -9600.00
04938               0.00    -9400.00
04939              -4.00    -9200.00
04940              -4.00    -9200.00
04941              -4.00    -9000.00
04942              -2.00    -8800.00
04943               0.00    -8800.00
04944               0.00    -8800.00
04945              -2.00    -8400.00
04946              -4.00    -8400.00
04947              -6.00    -8400.00
04948              -4.00    -8200.00
04949              -2.00    -8000.00
04950              -2.00    -8000.00
04951              -2.00    -7600.00
04952              -2.00    -7600.00
04953              -4.00    -7400.00
04954              -4.00    -7200.00
04955              -4.00    -7200.00
04956              -4.00    -7000.00
04957               0.00    -7000.00
04958              -2.00    -6800.00
04959              -4.00    -6600.00
04960              -6.00    -6600.00
04961              -4.00    -6200.00
04962              -4.00    -6200.00
04963              -2.00    -6000.00
04964              -4.00    -6000.00
04965              -4.00    -5600.00
04966              -8.00    -5400.00
04967              -4.00    -5400.00
04968              -8.00    -5200.00
04969              -4.00    -5200.00
04970              -4.00    -5000.00
04971              -2.00    -4800.00
04972              -6.00    -4600.00
04973              -8.00    -4400.00
04974              -8.00    -4200.00
04975              -4.00    -4400.00
04976              -4.00    -4000.00
04977              -2.00    -3600.00
04978              -4.00    -3400.00
04979              -8.00    -3400.00
04980              -6.00    -3200.00
04981              -4.00    -3000.00
04982              -4.00    -2800.00
04983              -4.00    -2600.00
04984              -4.00    -2400.00
04985              -4.00    -2200.00
04986              -8.00    -2200.00
04987              -8.00    -1800.00
04988              -4.00    -1800.00
04989              -4.00    -1600.00
04990              -4.00    -1400.00
04991              -4.00    -1200.00
04992              -4.00    -1000.00
04993              -8.00     -800.00
04994              -8.00     -600.00
04995              -4.00     -400.00
04996              -4.00     -200.00
04997              -2.00        0.00
04998               0.00        0.00
04999               0.00      200.00
05000              20.00      400.00
