Unit:(mV)
                     CH1         CH2
Frequency              ? 261.459 kHz
00001              -8.00    -4200.00
00002              -8.00    -4000.00
00003              -4.00    -4000.00
00004              -4.00    -3800.00
00005              -4.00    -3600.00
00006              -4.00    -3400.00
00007              -4.00    -3200.00
00008              -8.00    -3000.00
00009              -8.00    -2800.00
00010              -4.00    -2800.00
00011              -4.00    -2600.00
00012              -6.00    -2200.00
00013              -8.00    -2000.00
00014              -8.00    -2000.00
00015              -4.00    -1800.00
00016              -4.00    -1600.00
00017              -4.00    -1400.00
00018              -4.00    -1200.00
00019              -4.00    -1000.00
00020              -4.00     -800.00
00021              -8.00     -800.00
00022              -6.00     -400.00
00023              -4.00     -200.00
00024              -2.00     -200.00
00025              -2.00        0.00
00026              -2.00      400.00
00027              12.00      200.00
00028              16.00      600.00
00029              -4.00     1000.00
00030             -14.00     1000.00
00031               0.00     1200.00
00032               8.00     1200.00
00033              10.00     1400.00
00034             118.00     1600.00
00035             246.00     2000.00
00036            -120.00     2200.00
00037            -248.00     2400.00
00038            -138.00     2400.00
00039              16.00     2400.00
00040             252.00     2800.00
00041             252.00     2800.00
00042            -248.00     2800.00
00043            -248.00     3400.00
00044             252.00     3200.00
00045            -132.00     3800.00
00046            -248.00     3800.00
00047             252.00     3600.00
00048               4.00     4400.00
00049            -248.00     4000.00
00050             252.00     4200.00
00051            -180.00     5000.00
00052             -48.00     4600.00
00053             238.00     4800.00
00054            -212.00     5400.00
00055              12.00     5000.00
00056             100.00     5400.00
00057            -122.00     6000.00
00058              52.00     5400.00
00059              54.00     6200.00
00060             -42.00     6400.00
00061             -92.00     6000.00
00062              64.00     6400.00
00063              86.00     6400.00
00064            -164.00     6600.00
00065              72.00     7000.00
00066              64.00     7000.00
00067            -152.00     7000.00
00068              80.00     7000.00
00069               8.00     7600.00
00070             -50.00     7600.00
00071              52.00     7600.00
00072             -48.00     8000.00
00073             -20.00     7800.00
00074              28.00     8000.00
00075              12.00     8400.00
00076             -32.00     8200.00
00077             -12.00     8600.00
00078              28.00     8600.00
00079             -50.00     8600.00
00080              22.00     9000.00
00081              28.00     8800.00
00082             -64.00     9200.00
00083              28.00     9000.00
00084              20.00     9400.00
00085             -42.00     9200.00
00086               2.00     9400.00
00087              12.00     9600.00
00088             -12.00     9400.00
00089              -4.00     9600.00
00090               6.00    10000.00
00091             -18.00     9800.00
00092              -2.00    10000.00
00093              14.00    10200.00
00094             -26.00    10200.00
00095               0.00    10200.00
00096              14.00    10400.00
00097             -20.00    10400.00
00098               2.00    10400.00
00099               6.00    10600.00
00100             -24.00    10400.00
00101              -2.00    10600.00
00102              16.00    10800.00
00103             -10.00    10800.00
00104             -10.00    10800.00
00105               6.00    10800.00
00106             -12.00    10800.00
00107              -8.00    11000.00
00108               6.00    11000.00
00109              -8.00    11000.00
00110              -8.00    11000.00
00111               2.00    11000.00
00112             -10.00    11000.00
00113              -6.00    11000.00
00114               6.00    11200.00
00115             -10.00    11200.00
00116              -4.00    11000.00
00117               4.00    11200.00
00118             -12.00    11200.00
00119              -8.00    11200.00
00120               6.00    11200.00
00121              -4.00    11200.00
00122              -4.00    11200.00
00123               4.00    11200.00
00124              -8.00    11200.00
00125              -8.00    11200.00
00126               0.00    11200.00
00127              -8.00    11200.00
00128              -4.00    11000.00
00129               4.00    11000.00
00130              -4.00    11000.00
00131              -4.00    11000.00
00132              -2.00    10800.00
00133              -6.00    11000.00
00134              -2.00    10800.00
00135               4.00    10800.00
00136              -4.00    10800.00
00137              -2.00    10800.00
00138              -2.00    10400.00
00139              -6.00    10800.00
00140              -4.00    10400.00
00141               4.00    10400.00
00142              -2.00    10400.00
00143              -2.00    10400.00
00144               4.00    10400.00
00145              -4.00    10200.00
00146              -4.00    10200.00
00147              -2.00    10000.00
00148               0.00    10000.00
00149              -2.00     9800.00
00150               0.00     9800.00
00151              -2.00     9800.00
00152              -4.00     9600.00
00153              -2.00     9600.00
00154               0.00     9600.00
00155              -2.00     9400.00
00156               4.00     9200.00
00157              -2.00     9200.00
00158              -2.00     9000.00
00159              -2.00     8800.00
00160              -2.00     8800.00
00161              -4.00     8600.00
00162               4.00     8600.00
00163               0.00     8400.00
00164              -4.00     8400.00
00165               0.00     8000.00
00166              -2.00     8200.00
00167               0.00     8000.00
00168               2.00     7800.00
00169               4.00     7800.00
00170               0.00     7600.00
00171              -2.00     7600.00
00172              -2.00     7400.00
00173              -2.00     7200.00
00174               0.00     7000.00
00175               0.00     6800.00
00176              -2.00     6800.00
00177               4.00     6400.00
00178              -4.00     6400.00
00179              -4.00     6200.00
00180              -2.00     6000.00
00181              -2.00     6000.00
00182              -2.00     5600.00
00183               4.00     5600.00
00184              -2.00     5400.00
00185              -4.00     5200.00
00186              -2.00     5200.00
00187              -2.00     5000.00
00188               0.00     4800.00
00189               2.00     4800.00
00190              -2.00     4600.00
00191              -2.00     4400.00
00192              -2.00     4000.00
00193              -2.00     4000.00
00194              -2.00     3800.00
00195               4.00     3600.00
00196               0.00     3600.00
00197              -4.00     3200.00
00198              -4.00     3000.00
00199              -2.00     3000.00
00200              -2.00     2800.00
00201               0.00     2600.00
00202               4.00     2400.00
00203               0.00     2400.00
00204              -2.00     2000.00
00205               0.00     2000.00
00206               0.00     1600.00
00207              -4.00     1400.00
00208               0.00     1400.00
00209               0.00     1200.00
00210               0.00     1000.00
00211               0.00      800.00
00212              -2.00      600.00
00213               0.00      600.00
00214               0.00      200.00
00215               0.00      200.00
00216               6.00     -200.00
00217               4.00     -200.00
00218              14.00     -400.00
00219              22.00     -800.00
00220               4.00     -800.00
00221              -8.00    -1000.00
00222               4.00    -1200.00
00223              12.00    -1200.00
00224               8.00    -1400.00
00225              38.00    -1600.00
00226             174.00    -1800.00
00227             180.00    -2400.00
00228            -210.00    -2600.00
00229            -248.00    -2600.00
00230             -32.00    -2800.00
00231              30.00    -2600.00
00232             154.00    -2600.00
00233             252.00    -3400.00
00234            -248.00    -3400.00
00235            -248.00    -3000.00
00236             252.00    -4200.00
00237              54.00    -3600.00
00238            -248.00    -3600.00
00239             192.00    -4800.00
00240              84.00    -4200.00
00241             -90.00    -4400.00
00242              78.00    -5200.00
00243            -122.00    -4800.00
00244              -4.00    -5000.00
00245             134.00    -5400.00
00246             -42.00    -5200.00
00247             -40.00    -5600.00
00248             -12.00    -5800.00
00249              16.00    -5800.00
00250              54.00    -6000.00
00251              -6.00    -6200.00
00252             -44.00    -6400.00
00253             -24.00    -6400.00
00254              62.00    -6800.00
00255              32.00    -6800.00
00256             -72.00    -6800.00
00257               4.00    -7200.00
00258              28.00    -7200.00
00259               4.00    -7200.00
00260              -6.00    -7600.00
00261             -20.00    -7600.00
00262              28.00    -7800.00
00263               6.00    -8000.00
00264             -20.00    -8000.00
00265              -2.00    -8200.00
00266               0.00    -8400.00
00267              22.00    -8400.00
00268              12.00    -8400.00
00269             -18.00    -8800.00
00270             -12.00    -8800.00
00271               6.00    -9000.00
00272              14.00    -9200.00
00273               0.00    -9200.00
00274              -4.00    -9200.00
00275               0.00    -9200.00
00276               6.00    -9400.00
00277               4.00    -9600.00
00278             -10.00    -9600.00
00279               6.00    -9600.00
00280              16.00   -10000.00
00281              -2.00   -10000.00
00282              -4.00   -10000.00
00283               0.00   -10000.00
00284              -2.00   -10000.00
00285               2.00   -10200.00
00286               6.00   -10400.00
00287               0.00   -10400.00
00288              -2.00   -10600.00
00289               6.00   -10600.00
00290              -2.00   -10600.00
00291              -4.00   -10600.00
00292               4.00   -10800.00
00293               4.00   -10800.00
00294               6.00   -10800.00
00295               6.00   -10800.00
00296              -8.00   -11000.00
00297              -4.00   -10800.00
00298               6.00   -11200.00
00299               0.00   -11200.00
00300               0.00   -11200.00
00301               8.00   -11200.00
00302              -2.00   -11200.00
00303              -8.00   -11200.00
00304               0.00   -11200.00
00305              -2.00   -11400.00
00306              -2.00   -11400.00
00307               6.00   -11200.00
00308               0.00   -11200.00
00309              -4.00   -11400.00
00310              -4.00   -11200.00
00311              -4.00   -11400.00
00312              -2.00   -11200.00
00313               4.00   -11200.00
00314               2.00   -11400.00
00315              -2.00   -11200.00
00316              -4.00   -11400.00
00317              -8.00   -11400.00
00318              -4.00   -11200.00
00319               4.00   -11200.00
00320               0.00   -11200.00
00321              -2.00   -11200.00
00322              -2.00   -11200.00
00323              -4.00   -11200.00
00324              -4.00   -11000.00
00325              -2.00   -10800.00
00326               0.00   -10800.00
00327              -2.00   -10800.00
00328               0.00   -10800.00
00329              -4.00   -10800.00
00330              -4.00   -10800.00
00331              -4.00   -10600.00
00332              -2.00   -10800.00
00333               0.00   -10400.00
00334               4.00   -10600.00
00335              -4.00   -10600.00
00336              -4.00   -10400.00
00337              -4.00   -10400.00
00338              -4.00   -10400.00
00339              -2.00   -10200.00
00340               4.00   -10000.00
00341              -2.00   -10000.00
00342              -2.00    -9800.00
00343              -4.00    -9800.00
00344              -4.00    -9600.00
00345              -2.00    -9600.00
00346              -2.00    -9600.00
00347              -2.00    -9600.00
00348              -2.00    -9400.00
00349              -4.00    -9200.00
00350              -4.00    -9200.00
00351              -4.00    -9000.00
00352              -4.00    -8800.00
00353               0.00    -8800.00
00354              -2.00    -8800.00
00355              -4.00    -8400.00
00356              -4.00    -8400.00
00357              -4.00    -8200.00
00358              -4.00    -8200.00
00359              -2.00    -8000.00
00360              -2.00    -8000.00
00361              -2.00    -7800.00
00362              -4.00    -7600.00
00363              -6.00    -7600.00
00364              -4.00    -7400.00
00365              -4.00    -7200.00
00366              -4.00    -7200.00
00367              -4.00    -7000.00
00368              -4.00    -6800.00
00369              -8.00    -6600.00
00370              -6.00    -6400.00
00371              -8.00    -6400.00
00372              -4.00    -6000.00
00373              -2.00    -6000.00
00374              -4.00    -5800.00
00375              -4.00    -5600.00
00376             -10.00    -5600.00
00377              -8.00    -5200.00
00378              -8.00    -5200.00
00379              -4.00    -5000.00
00380              -4.00    -4800.00
00381              -4.00    -4800.00
00382              -6.00    -4400.00
00383              -8.00    -4400.00
00384              -6.00    -4200.00
00385              -6.00    -4000.00
00386              -4.00    -3800.00
00387              -2.00    -3800.00
00388              -4.00    -3400.00
00389              -8.00    -3200.00
00390              -8.00    -3200.00
00391              -8.00    -2800.00
00392              -4.00    -2800.00
00393              -4.00    -2600.00
00394              -4.00    -2400.00
00395              -4.00    -2400.00
00396              -8.00    -2000.00
00397              -8.00    -1800.00
00398              -6.00    -1600.00
00399              -4.00    -1600.00
00400              -4.00    -1400.00
00401              -4.00    -1200.00
00402              -8.00    -1200.00
00403             -10.00     -800.00
00404              -8.00     -600.00
00405              -4.00     -400.00
00406              -4.00     -200.00
00407              -2.00        0.00
00408              -2.00        0.00
00409               6.00      400.00
00410              20.00      400.00
00411               6.00      600.00
00412             -12.00     1000.00
00413              -4.00     1000.00
00414               6.00     1200.00
00415               6.00     1200.00
00416              46.00     1600.00
00417             228.00     1800.00
00418             106.00     2000.00
00419            -248.00     2200.00
00420            -248.00     2400.00
00421              -8.00     2400.00
00422             102.00     2400.00
00423             252.00     3000.00
00424             -52.00     2800.00
00425            -248.00     3000.00
00426             252.00     3200.00
00427             252.00     3400.00
00428            -248.00     3800.00
00429             102.00     3600.00
00430             252.00     4000.00
00431            -248.00     4400.00
00432             108.00     4000.00
00433             108.00     4800.00
00434            -248.00     4800.00
00435             236.00     4600.00
00436             -16.00     5200.00
00437            -172.00     5200.00
00438             150.00     4800.00
00439             -58.00     6000.00
00440             -46.00     5600.00
00441              86.00     5600.00
00442              -4.00     6400.00
00443             -80.00     6000.00
00444             -40.00     6400.00
00445             140.00     6800.00
00446             -82.00     6400.00
00447             -82.00     7000.00
00448             152.00     7000.00
00449            -106.00     7400.00
00450             -36.00     7200.00
00451              92.00     7400.00
00452             -72.00     7800.00
00453              28.00     7400.00
00454               6.00     8000.00
00455             -58.00     7800.00
00456              16.00     7800.00
00457              22.00     8400.00
00458              -8.00     8200.00
00459             -36.00     8400.00
00460              28.00     8800.00
00461             -18.00     8600.00
00462             -28.00     8600.00
00463              60.00     8800.00
00464             -40.00     9200.00
00465             -26.00     9000.00
00466              52.00     9200.00
00467             -28.00     9400.00
00468             -26.00     9200.00
00469              20.00     9600.00
00470               0.00     9600.00
00471             -12.00     9600.00
00472               4.00    10000.00
00473              -4.00     9800.00
00474             -16.00    10000.00
00475              18.00    10000.00
00476              -6.00    10200.00
00477             -20.00    10200.00
00478              20.00    10200.00
00479              -8.00    10400.00
00480             -16.00    10400.00
00481              12.00    10600.00
00482             -12.00    10400.00
00483             -16.00    10400.00
00484              16.00    10600.00
00485               0.00    10800.00
00486             -18.00    10800.00
00487               4.00    10800.00
00488              -2.00    11000.00
00489             -18.00    10800.00
00490               4.00    11000.00
00491               0.00    11000.00
00492              -8.00    11000.00
00493               6.00    11200.00
00494               2.00    11200.00
00495             -10.00    11000.00
00496               4.00    11200.00
00497              -4.00    11200.00
00498             -12.00    11000.00
00499              -2.00    11200.00
00500             -10.00    11200.00
00501             -16.00    11200.00
00502               4.00    11200.00
00503               4.00    11200.00
00504              -2.00    11200.00
00505               4.00    11200.00
00506               0.00    11200.00
00507              -8.00    11000.00
00508              -8.00    11200.00
00509              -4.00    11200.00
00510              -8.00    11000.00
00511              -2.00    11200.00
00512               0.00    11000.00
00513              -4.00    11000.00
00514               0.00    11000.00
00515               0.00    11000.00
00516              -4.00    10800.00
00517               0.00    11000.00
00518              -2.00    10800.00
00519              -4.00    10800.00
00520              -4.00    10600.00
00521              -4.00    10400.00
00522              -6.00    10400.00
00523              -2.00    10400.00
00524               0.00    10400.00
00525              -2.00    10400.00
00526              -2.00    10400.00
00527               0.00    10200.00
00528              -4.00    10200.00
00529              -2.00    10000.00
00530               0.00    10000.00
00531              -2.00    10000.00
00532              -4.00     9800.00
00533              -4.00     9800.00
00534              -4.00     9800.00
00535              -4.00     9600.00
00536               0.00     9400.00
00537               0.00     9400.00
00538              -2.00     9200.00
00539               0.00     9200.00
00540              -2.00     9200.00
00541              -4.00     8800.00
00542              -2.00     8800.00
00543              -2.00     8600.00
00544               0.00     8600.00
00545              -2.00     8600.00
00546              -4.00     8400.00
00547              -2.00     8200.00
00548               0.00     8400.00
00549              -2.00     7800.00
00550               0.00     8000.00
00551              -2.00     7800.00
00552               0.00     7600.00
00553               4.00     7600.00
00554              -2.00     7400.00
00555              -4.00     7200.00
00556              -2.00     7200.00
00557              -2.00     7000.00
00558              -2.00     6800.00
00559               6.00     6800.00
00560               0.00     6600.00
00561              -4.00     6200.00
00562               0.00     6200.00
00563              -2.00     6000.00
00564               0.00     5800.00
00565               0.00     5800.00
00566              -4.00     5600.00
00567              -4.00     5400.00
00568               0.00     5200.00
00569               0.00     5000.00
00570               0.00     4800.00
00571               4.00     4800.00
00572              -2.00     4600.00
00573              -4.00     4400.00
00574               0.00     4000.00
00575              -4.00     4000.00
00576              -8.00     3800.00
00577               6.00     3800.00
00578              -4.00     3400.00
00579              -4.00     3400.00
00580               6.00     3000.00
00581              -4.00     3000.00
00582              -4.00     2800.00
00583               6.00     2800.00
00584               0.00     2400.00
00585              -2.00     2400.00
00586               0.00     2200.00
00587              -4.00     2000.00
00588              -2.00     1800.00
00589               0.00     1600.00
00590              -2.00     1400.00
00591               0.00     1400.00
00592               4.00     1200.00
00593               0.00      800.00
00594               0.00      600.00
00595               0.00      600.00
00596              -2.00      400.00
00597              -2.00        0.00
00598               4.00        0.00
00599               4.00     -200.00
00600               6.00     -400.00
00601              22.00     -600.00
00602              14.00     -800.00
00603              -8.00     -800.00
00604              -2.00    -1000.00
00605               8.00    -1200.00
00606              12.00    -1400.00
00607              16.00    -1600.00
00608              96.00    -1600.00
00609             230.00    -2000.00
00610             -12.00    -2600.00
00611            -248.00    -2600.00
00612            -194.00    -2800.00
00613              56.00    -2800.00
00614              28.00    -2600.00
00615             252.00    -3000.00
00616              74.00    -3600.00
00617            -248.00    -3200.00
00618             208.00    -3600.00
00619             252.00    -4200.00
00620            -248.00    -3200.00
00621             -66.00    -4400.00
00622             248.00    -4400.00
00623            -100.00    -4000.00
00624              38.00    -5000.00
00625             -16.00    -5000.00
00626            -118.00    -4800.00
00627             120.00    -5200.00
00628              44.00    -5200.00
00629             -64.00    -5400.00
00630             -16.00    -5600.00
00631              -4.00    -5600.00
00632              52.00    -6000.00
00633              26.00    -6000.00
00634             -32.00    -6400.00
00635             -44.00    -6400.00
00636              24.00    -6600.00
00637              76.00    -7000.00
00638             -44.00    -6800.00
00639             -42.00    -7000.00
00640              32.00    -7400.00
00641              12.00    -7200.00
00642               4.00    -7400.00
00643             -20.00    -7600.00
00644               8.00    -7600.00
00645              28.00    -8000.00
00646             -20.00    -8000.00
00647              -8.00    -8200.00
00648              -2.00    -8200.00
00649               8.00    -8400.00
00650              22.00    -8600.00
00651             -10.00    -8800.00
00652             -18.00    -8800.00
00653              -2.00    -9000.00
00654              14.00    -9000.00
00655               8.00    -9200.00
00656              -4.00    -9200.00
00657              -2.00    -9200.00
00658               4.00    -9600.00
00659               8.00    -9600.00
00660              -6.00    -9600.00
00661             -10.00    -9800.00
00662              12.00    -9800.00
00663              12.00    -9800.00
00664              -8.00   -10000.00
00665              -2.00   -10000.00
00666               2.00   -10000.00
00667              -2.00   -10400.00
00668               6.00   -10200.00
00669               4.00   -10400.00
00670              -2.00   -10400.00
00671               6.00   -10600.00
00672               0.00   -10600.00
00673              -8.00   -10800.00
00674               0.00   -10800.00
00675               4.00   -10800.00
00676               6.00   -10800.00
00677               6.00   -10800.00
00678              -4.00   -11000.00
00679              -8.00   -11000.00
00680               0.00   -11000.00
00681               4.00   -11000.00
00682               0.00   -11200.00
00683               6.00   -11000.00
00684               2.00   -11200.00
00685              -4.00   -11200.00
00686              -4.00   -11200.00
00687               0.00   -11200.00
00688              -2.00   -11400.00
00689               6.00   -11200.00
00690               4.00   -11200.00
00691              -4.00   -11400.00
00692              -4.00   -11400.00
00693              -2.00   -11400.00
00694              -2.00   -11200.00
00695               4.00   -11200.00
00696               2.00   -11400.00
00697              -2.00   -11400.00
00698              -4.00   -11200.00
00699              -4.00   -11200.00
00700              -4.00   -11200.00
00701              -2.00   -11200.00
00702               4.00   -11200.00
00703              -2.00   -11200.00
00704              -2.00   -11400.00
00705              -4.00   -11200.00
00706              -6.00   -11200.00
00707              -4.00   -11000.00
00708               0.00   -10800.00
00709               0.00   -10800.00
00710              -2.00   -10800.00
00711              -4.00   -10800.00
00712              -4.00   -10800.00
00713              -4.00   -10800.00
00714              -4.00   -10800.00
00715              -2.00   -10600.00
00716               0.00   -10600.00
00717              -2.00   -10600.00
00718              -8.00   -10400.00
00719              -4.00   -10400.00
00720              -4.00   -10400.00
00721              -4.00   -10200.00
00722              -2.00   -10000.00
00723              -2.00   -10000.00
00724              -2.00    -9800.00
00725              -8.00    -9800.00
00726              -4.00    -9800.00
00727              -4.00    -9600.00
00728              -4.00    -9600.00
00729              -2.00    -9400.00
00730              -2.00    -9400.00
00731              -4.00    -9200.00
00732              -8.00    -9200.00
00733              -4.00    -9000.00
00734              -4.00    -9000.00
00735              -2.00    -8800.00
00736              -2.00    -8800.00
00737              -2.00    -8400.00
00738              -4.00    -8400.00
00739              -4.00    -8400.00
00740              -4.00    -8200.00
00741              -2.00    -8000.00
00742               0.00    -8000.00
00743              -2.00    -7800.00
00744              -2.00    -7600.00
00745              -4.00    -7600.00
00746              -8.00    -7400.00
00747              -4.00    -7400.00
00748              -4.00    -7200.00
00749              -2.00    -7000.00
00750              -4.00    -6800.00
00751              -4.00    -6800.00
00752              -6.00    -6600.00
00753              -8.00    -6400.00
00754              -4.00    -6000.00
00755              -2.00    -6200.00
00756              -2.00    -5800.00
00757              -4.00    -5800.00
00758              -6.00    -5600.00
00759              -8.00    -5400.00
00760              -8.00    -5200.00
00761              -4.00    -5000.00
00762              -4.00    -5000.00
00763              -4.00    -4800.00
00764              -4.00    -4600.00
00765              -8.00    -4400.00
00766             -10.00    -4200.00
00767              -8.00    -4200.00
00768              -4.00    -4000.00
00769              -4.00    -3600.00
00770              -4.00    -3600.00
00771              -8.00    -3400.00
00772              -8.00    -3200.00
00773              -6.00    -3200.00
00774              -8.00    -2800.00
00775              -6.00    -2600.00
00776              -4.00    -2400.00
00777              -4.00    -2400.00
00778              -8.00    -2200.00
00779              -8.00    -2000.00
00780              -8.00    -1800.00
00781              -4.00    -1600.00
00782              -8.00    -1200.00
00783              -4.00    -1200.00
00784              -4.00    -1200.00
00785             -10.00     -800.00
00786              -8.00     -800.00
00787              -6.00     -600.00
00788              -4.00     -200.00
00789              -2.00     -200.00
00790              -2.00        0.00
00791               0.00      400.00
00792              14.00      400.00
00793              14.00      600.00
00794              -8.00      600.00
00795             -14.00     1000.00
00796               4.00     1000.00
00797               6.00     1200.00
00798              12.00     1400.00
00799             140.00     1600.00
00800             238.00     2000.00
00801            -164.00     2200.00
00802            -248.00     2400.00
00803            -106.00     2400.00
00804              22.00     2400.00
00805             252.00     2800.00
00806             252.00     2800.00
00807            -248.00     2800.00
00808            -216.00     3400.00
00809             252.00     3200.00
00810            -248.00     3800.00
00811            -248.00     3800.00
00812             252.00     3600.00
00813             -86.00     4200.00
00814            -240.00     4200.00
00815             252.00     4400.00
00816            -220.00     5200.00
00817              10.00     4600.00
00818             214.00     5000.00
00819            -226.00     5400.00
00820              46.00     4800.00
00821              78.00     5600.00
00822            -122.00     6000.00
00823              68.00     5400.00
00824              40.00     6200.00
00825             -48.00     6200.00
00826             -90.00     6000.00
00827              82.00     6800.00
00828              64.00     6400.00
00829            -166.00     6800.00
00830              96.00     7000.00
00831              36.00     7000.00
00832            -142.00     7200.00
00833              94.00     7400.00
00834             -10.00     7600.00
00835             -36.00     7600.00
00836              52.00     7600.00
00837             -56.00     8000.00
00838             -12.00     7600.00
00839              24.00     8200.00
00840              12.00     8400.00
00841             -34.00     8000.00
00842              -8.00     8600.00
00843              22.00     8600.00
00844             -52.00     8600.00
00845              28.00     8800.00
00846              20.00     8800.00
00847             -66.00     9200.00
00848              32.00     9200.00
00849              12.00     9400.00
00850             -44.00     9400.00
00851               6.00     9400.00
00852              10.00     9600.00
00853             -10.00     9400.00
00854              -4.00     9800.00
00855               4.00    10000.00
00856             -18.00     9800.00
00857               2.00    10000.00
00858              12.00    10000.00
00859             -26.00    10200.00
00860               2.00    10200.00
00861              12.00    10400.00
00862             -20.00    10400.00
00863               6.00    10400.00
00864               4.00    10400.00
00865             -20.00    10400.00
00866               0.00    10600.00
00867              16.00    10800.00
00868             -16.00    10600.00
00869              -8.00    10800.00
00870               6.00    11000.00
00871             -12.00    10800.00
00872              -4.00    11000.00
00873               8.00    10800.00
00874              -8.00    11000.00
00875              -4.00    11000.00
00876               2.00    11200.00
00877              -8.00    11000.00
00878              -4.00    11000.00
00879               4.00    11200.00
00880              -6.00    11200.00
00881              -2.00    11200.00
00882               0.00    11200.00
00883             -10.00    11000.00
00884              -6.00    11200.00
00885               4.00    11200.00
00886              -4.00    11200.00
00887              -4.00    11200.00
00888               0.00    11200.00
00889              -8.00    11200.00
00890              -8.00    11000.00
00891              -2.00    11200.00
00892              -4.00    11000.00
00893              -6.00    11000.00
00894               0.00    11000.00
00895              -4.00    11000.00
00896              -4.00    11000.00
00897              -4.00    11200.00
00898              -8.00    10800.00
00899              -4.00    10800.00
00900               4.00    10800.00
00901              -4.00    10800.00
00902              -4.00    10600.00
00903              -2.00    10600.00
00904              -8.00    10800.00
00905              -4.00    10400.00
00906               0.00    10400.00
00907              -4.00    10400.00
00908              -6.00    10400.00
00909              -2.00    10200.00
00910              -4.00    10200.00
00911              -6.00    10000.00
00912              -4.00    10000.00
00913              -2.00    10000.00
00914              -2.00    10000.00
00915              -2.00     9800.00
00916              -2.00     9800.00
00917              -4.00     9600.00
00918              -2.00     9400.00
00919              -2.00     9400.00
00920               0.00     9200.00
00921               0.00     9200.00
00922              -4.00     9000.00
00923              -4.00     9000.00
00924              -4.00     8800.00
00925              -2.00     8800.00
00926              -2.00     8600.00
00927               0.00     8600.00
00928               0.00     8400.00
00929              -4.00     8400.00
00930              -2.00     8000.00
00931              -2.00     8000.00
00932               0.00     7800.00
00933               0.00     7800.00
00934              -2.00     7600.00
00935               4.00     7600.00
00936              -4.00     7400.00
00937              -2.00     7200.00
00938               2.00     7000.00
00939              -2.00     7200.00
00940               4.00     6800.00
00941               0.00     6800.00
00942               0.00     6600.00
00943              -2.00     6400.00
00944              -4.00     6200.00
00945              -2.00     6000.00
00946               0.00     6000.00
00947              -2.00     5600.00
00948               0.00     5600.00
00949              -4.00     5400.00
00950               0.00     5400.00
00951              -2.00     5200.00
00952               4.00     5000.00
00953               0.00     4800.00
00954               0.00     4600.00
00955              -2.00     4600.00
00956              -2.00     4200.00
00957              -4.00     4200.00
00958              -2.00     4000.00
00959               0.00     3800.00
00960               0.00     3600.00
00961               0.00     3600.00
00962              -2.00     3200.00
00963              -2.00     3000.00
00964              -2.00     3000.00
00965               0.00     2800.00
00966               0.00     2600.00
00967               0.00     2400.00
00968               0.00     2200.00
00969              -2.00     2200.00
00970              -2.00     2000.00
00971              -2.00     1600.00
00972              -2.00     1400.00
00973               0.00     1200.00
00974               0.00     1200.00
00975               0.00     1000.00
00976              -2.00      800.00
00977              -2.00      600.00
00978              -2.00      400.00
00979               0.00      200.00
00980               0.00        0.00
00981               2.00     -200.00
00982               4.00     -400.00
00983              14.00     -400.00
00984              22.00     -800.00
00985               0.00     -800.00
00986              -8.00    -1000.00
00987               6.00    -1200.00
00988              12.00    -1200.00
00989              10.00    -1600.00
00990              44.00    -1600.00
00991             188.00    -1800.00
00992             160.00    -2400.00
00993            -244.00    -2600.00
00994            -248.00    -2600.00
00995             -10.00    -2800.00
00996              26.00    -2600.00
00997             188.00    -2600.00
00998             252.00    -3400.00
00999            -248.00    -3400.00
01000            -248.00    -3200.00
01001             252.00    -4200.00
01002             -32.00    -3600.00
01003            -248.00    -3600.00
01004             226.00    -4600.00
01005              46.00    -4200.00
01006             -72.00    -4400.00
01007              76.00    -5200.00
01008            -132.00    -4600.00
01009              22.00    -5000.00
01010             126.00    -5200.00
01011             -48.00    -5200.00
01012             -34.00    -5400.00
01013             -10.00    -5800.00
01014              24.00    -6000.00
01015              54.00    -6000.00
01016              -8.00    -6200.00
01017             -46.00    -6400.00
01018             -18.00    -6400.00
01019              70.00    -6600.00
01020              20.00    -6800.00
01021             -70.00    -6800.00
01022               6.00    -7200.00
01023              24.00    -7200.00
01024               6.00    -7400.00
01025              -8.00    -7600.00
01026             -18.00    -7600.00
01027              30.00    -7800.00
01028               0.00    -8000.00
01029             -20.00    -8000.00
01030              -2.00    -8200.00
01031              -2.00    -8400.00
01032              22.00    -8600.00
01033               8.00    -8800.00
01034             -20.00    -8800.00
01035             -10.00    -9000.00
01036               6.00    -8800.00
01037              16.00    -9000.00
01038               0.00    -9200.00
01039              -4.00    -9200.00
01040               0.00    -9400.00
01041               4.00    -9600.00
01042               4.00    -9600.00
01043             -14.00    -9600.00
01044               4.00    -9800.00
01045              16.00    -9800.00
01046              -4.00   -10000.00
01047              -8.00   -10000.00
01048               4.00   -10000.00
01049              -4.00   -10200.00
01050               0.00   -10400.00
01051               6.00   -10400.00
01052              -2.00   -10400.00
01053              -2.00   -10400.00
01054               4.00   -10600.00
01055              -6.00   -10800.00
01056              -4.00   -10600.00
01057               0.00   -10800.00
01058               4.00   -10800.00
01059               6.00   -10800.00
01060               0.00   -10800.00
01061              -8.00   -10800.00
01062              -4.00   -10800.00
01063               0.00   -10800.00
01064               2.00   -11000.00
01065               4.00   -11200.00
01066               6.00   -11200.00
01067              -4.00   -11200.00
01068              -4.00   -11200.00
01069               0.00   -11200.00
01070               0.00   -11000.00
01071               2.00   -11400.00
01072               6.00   -11200.00
01073               0.00   -11200.00
01074              -4.00   -11200.00
01075              -4.00   -11400.00
01076              -4.00   -11400.00
01077              -4.00   -11200.00
01078               0.00   -11200.00
01079               0.00   -11400.00
01080               6.00   -11200.00
01081               6.00   -11400.00
01082              -4.00   -11200.00
01083              -4.00   -11200.00
01084              -4.00   -11200.00
01085              -4.00   -11200.00
01086              -2.00   -11200.00
01087               2.00   -11200.00
01088              -4.00   -11000.00
01089              -8.00   -11200.00
01090              -2.00   -10800.00
01091              -2.00   -11000.00
01092              -2.00   -10800.00
01093               0.00   -10800.00
01094              -4.00   -10800.00
01095              -4.00   -10800.00
01096              -6.00   -10600.00
01097              -4.00   -10600.00
01098              -4.00   -10600.00
01099               0.00   -10400.00
01100              -4.00   -10400.00
01101              -8.00   -10400.00
01102              -4.00   -10400.00
01103              -4.00   -10400.00
01104              -4.00   -10200.00
01105               0.00   -10000.00
01106              -4.00   -10000.00
01107              -8.00    -9800.00
01108              -8.00    -9800.00
01109              -4.00    -9600.00
01110              -4.00    -9600.00
01111              -4.00    -9600.00
01112              -4.00    -9400.00
01113              -4.00    -9200.00
01114              -4.00    -9200.00
01115              -6.00    -9200.00
01116              -8.00    -9000.00
01117              -4.00    -8800.00
01118              -2.00    -8800.00
01119              -4.00    -8600.00
01120              -4.00    -8400.00
01121              -8.00    -8400.00
01122             -10.00    -8200.00
01123              -4.00    -8000.00
01124              -2.00    -8000.00
01125              -4.00    -7800.00
01126              -2.00    -7600.00
01127              -4.00    -7600.00
01128              -4.00    -7400.00
01129              -8.00    -7400.00
01130              -4.00    -7400.00
01131              -2.00    -7200.00
01132              -2.00    -6800.00
01133              -4.00    -6800.00
01134              -4.00    -6600.00
01135              -4.00    -6400.00
01136              -8.00    -6400.00
01137              -4.00    -6000.00
01138              -2.00    -6000.00
01139              -4.00    -5800.00
01140              -4.00    -5800.00
01141              -4.00    -5400.00
01142              -8.00    -5200.00
01143              -4.00    -5000.00
01144               0.00    -4800.00
01145              -4.00    -4800.00
01146              -4.00    -4800.00
01147              -4.00    -4400.00
01148              -8.00    -4400.00
01149             -10.00    -4400.00
01150              -4.00    -4000.00
01151              -6.00    -3800.00
01152              -2.00    -3600.00
01153              -4.00    -3600.00
01154             -10.00    -3400.00
01155              -6.00    -3200.00
01156              -8.00    -3000.00
01157              -6.00    -2800.00
01158              -4.00    -2600.00
01159              -4.00    -2400.00
01160              -8.00    -2400.00
01161              -8.00    -2000.00
01162              -8.00    -1800.00
01163              -8.00    -1600.00
01164              -4.00    -1600.00
01165              -4.00    -1400.00
01166              -4.00    -1200.00
01167              -4.00    -1000.00
01168             -10.00     -800.00
01169             -10.00     -600.00
01170              -8.00     -400.00
01171              -4.00     -400.00
01172              -4.00     -200.00
01173              -2.00        0.00
01174               4.00      400.00
01175              20.00      400.00
01176               4.00      600.00
01177             -12.00     1000.00
01178              -4.00     1000.00
01179               6.00     1200.00
01180               6.00     1200.00
01181              54.00     1400.00
01182             238.00     1800.00
01183              68.00     2000.00
01184            -248.00     2200.00
01185            -248.00     2200.00
01186               0.00     2400.00
01187             136.00     2600.00
01188             252.00     3000.00
01189            -164.00     2800.00
01190            -248.00     3200.00
01191             252.00     3200.00
01192             252.00     3400.00
01193            -248.00     4000.00
01194             208.00     3600.00
01195             252.00     4000.00
01196            -248.00     4400.00
01197             160.00     4000.00
01198              54.00     4800.00
01199            -240.00     4800.00
01200             252.00     4400.00
01201             -60.00     5200.00
01202            -140.00     5200.00
01203             156.00     4800.00
01204             -80.00     6000.00
01205             -26.00     5600.00
01206              86.00     5600.00
01207             -12.00     6400.00
01208             -82.00     6000.00
01209             -20.00     6200.00
01210             140.00     6600.00
01211            -104.00     6600.00
01212             -52.00     6800.00
01213             150.00     7000.00
01214            -126.00     7000.00
01215             -10.00     7400.00
01216              84.00     7400.00
01217             -74.00     7800.00
01218              38.00     7600.00
01219              -8.00     8000.00
01220             -50.00     8000.00
01221              20.00     7800.00
01222              20.00     8600.00
01223             -10.00     8000.00
01224             -36.00     8400.00
01225              30.00     8600.00
01226             -26.00     8400.00
01227             -24.00     8800.00
01228              56.00     8800.00
01229             -50.00     8800.00
01230             -18.00     9200.00
01231              44.00     9200.00
01232             -34.00     9400.00
01233             -20.00     9200.00
01234              16.00     9600.00
01235              -2.00     9600.00
01236             -12.00     9600.00
01237               4.00     9800.00
01238             -10.00    10000.00
01239             -16.00    10000.00
01240              16.00    10000.00
01241             -12.00    10000.00
01242             -20.00    10200.00
01243              20.00    10200.00
01244             -10.00    10400.00
01245             -10.00    10200.00
01246              12.00    10400.00
01247             -16.00    10400.00
01248             -18.00    10400.00
01249              16.00    10800.00
01250              -2.00    10800.00
01251             -18.00    10800.00
01252               4.00    10800.00
01253              -4.00    10800.00
01254             -12.00    10800.00
01255               6.00    11000.00
01256              -2.00    10800.00
01257              -8.00    11000.00
01258               4.00    11000.00
01259              -4.00    11200.00
01260             -10.00    11000.00
01261               4.00    11200.00
01262              -2.00    11200.00
01263              -4.00    11200.00
01264               4.00    11200.00
01265              -4.00    11200.00
01266             -10.00    11000.00
01267               4.00    11200.00
01268               0.00    11200.00
01269              -4.00    11200.00
01270               4.00    11200.00
01271              -2.00    11200.00
01272             -10.00    11200.00
01273              -2.00    11000.00
01274              -2.00    11000.00
01275              -6.00    11000.00
01276               0.00    11200.00
01277               0.00    11000.00
01278              -4.00    11000.00
01279              -2.00    11000.00
01280              -4.00    10800.00
01281              -8.00    11000.00
01282               2.00    10800.00
01283              -2.00    10800.00
01284              -4.00    10800.00
01285              -2.00    10800.00
01286              -2.00    10800.00
01287              -6.00    10600.00
01288              -2.00    10400.00
01289               0.00    10400.00
01290              -4.00    10400.00
01291              -4.00    10200.00
01292               0.00    10200.00
01293              -8.00    10200.00
01294              -4.00    10000.00
01295               0.00    10000.00
01296              -2.00    10000.00
01297              -4.00    10000.00
01298              -4.00     9800.00
01299              -4.00     9600.00
01300              -4.00     9600.00
01301              -4.00     9400.00
01302              -2.00     9400.00
01303              -2.00     9200.00
01304              -2.00     9200.00
01305              -4.00     9000.00
01306              -2.00     8800.00
01307              -4.00     8800.00
01308              -6.00     8800.00
01309               0.00     8600.00
01310               4.00     8600.00
01311               0.00     8400.00
01312              -2.00     8400.00
01313              -4.00     8200.00
01314              -8.00     8000.00
01315              -2.00     7800.00
01316               4.00     7800.00
01317               0.00     7600.00
01318              -2.00     7600.00
01319              -4.00     7400.00
01320              -4.00     7200.00
01321               4.00     7200.00
01322               0.00     7000.00
01323               0.00     6800.00
01324               4.00     6600.00
01325              -4.00     6600.00
01326              -4.00     6200.00
01327               0.00     6200.00
01328               2.00     6000.00
01329              -2.00     6000.00
01330              -2.00     5600.00
01331               0.00     5600.00
01332               4.00     5400.00
01333              -2.00     5200.00
01334               0.00     5200.00
01335               2.00     4800.00
01336               0.00     4800.00
01337              -4.00     4600.00
01338               2.00     4400.00
01339               0.00     4400.00
01340              -2.00     4000.00
01341              -2.00     3800.00
01342               4.00     3600.00
01343               0.00     3600.00
01344               4.00     3200.00
01345              -2.00     3200.00
01346              -2.00     3000.00
01347               0.00     2800.00
01348              -2.00     2600.00
01349               0.00     2400.00
01350               4.00     2400.00
01351              -2.00     2000.00
01352              -2.00     1800.00
01353              -2.00     1600.00
01354              -2.00     1400.00
01355               0.00     1400.00
01356               0.00     1200.00
01357               0.00     1000.00
01358               0.00     1000.00
01359              -2.00      600.00
01360              -2.00      600.00
01361               0.00      200.00
01362               0.00        0.00
01363               4.00     -200.00
01364               4.00     -400.00
01365               6.00     -400.00
01366              20.00     -400.00
01367              12.00     -800.00
01368             -10.00     -800.00
01369              -4.00    -1000.00
01370              12.00    -1200.00
01371               8.00    -1400.00
01372              18.00    -1600.00
01373             112.00    -1600.00
01374             230.00    -2000.00
01375             -52.00    -2600.00
01376            -248.00    -2600.00
01377            -160.00    -2800.00
01378              58.00    -2800.00
01379              42.00    -2600.00
01380             252.00    -3200.00
01381               0.00    -3600.00
01382            -248.00    -3000.00
01383             252.00    -3800.00
01384             252.00    -4200.00
01385            -248.00    -3400.00
01386              -8.00    -4400.00
01387             226.00    -4400.00
01388            -112.00    -4000.00
01389              56.00    -5000.00
01390             -40.00    -4800.00
01391            -104.00    -4600.00
01392             132.00    -5400.00
01393              28.00    -5200.00
01394             -60.00    -5400.00
01395             -12.00    -5800.00
01396              -2.00    -5600.00
01397              56.00    -5800.00
01398              22.00    -6000.00
01399             -40.00    -6400.00
01400             -42.00    -6400.00
01401              36.00    -6600.00
01402              70.00    -7200.00
01403             -50.00    -6800.00
01404             -34.00    -7000.00
01405              36.00    -7400.00
01406               8.00    -7200.00
01407               4.00    -7600.00
01408             -20.00    -7600.00
01409              12.00    -7600.00
01410              22.00    -8000.00
01411             -20.00    -8000.00
01412              -8.00    -8200.00
01413              -2.00    -8200.00
01414               8.00    -8400.00
01415              22.00    -8600.00
01416             -10.00    -8400.00
01417             -20.00    -9000.00
01418              -2.00    -8800.00
01419              14.00    -9000.00
01420               6.00    -9200.00
01421              -4.00    -9000.00
01422              -4.00    -9200.00
01423               0.00    -9600.00
01424               8.00    -9600.00
01425             -10.00    -9600.00
01426              -8.00    -9800.00
01427              16.00   -10000.00
01428               6.00   -10000.00
01429              -8.00   -10000.00
01430              -4.00   -10000.00
01431              -2.00   -10200.00
01432               0.00   -10400.00
01433               4.00   -10200.00
01434               4.00   -10400.00
01435              -2.00   -10600.00
01436               2.00   -10400.00
01437              -2.00   -10600.00
01438              -4.00   -10600.00
01439              -2.00   -10800.00
01440               0.00   -10600.00
01441               6.00   -10800.00
01442               8.00   -10800.00
01443              -4.00   -10800.00
01444             -10.00   -11000.00
01445              -4.00   -11000.00
01446              -2.00   -11200.00
01447               4.00   -11000.00
01448               6.00   -11200.00
01449               0.00   -11200.00
01450              -8.00   -11200.00
01451              -6.00   -11200.00
01452              -2.00   -11200.00
01453               4.00   -11200.00
01454               6.00   -11200.00
01455               0.00   -11200.00
01456              -4.00   -11200.00
01457              -4.00   -11400.00
01458              -2.00   -11200.00
01459               0.00   -11200.00
01460               0.00   -11200.00
01461              -2.00   -11200.00
01462              -2.00   -11200.00
01463              -2.00   -11200.00
01464              -4.00   -11400.00
01465              -4.00   -11200.00
01466               0.00   -11200.00
01467               0.00   -11200.00
01468               0.00   -11200.00
01469              -2.00   -11200.00
01470              -4.00   -11200.00
01471              -2.00   -10800.00
01472              -4.00   -11200.00
01473               0.00   -11000.00
01474               4.00   -11000.00
01475              -2.00   -10800.00
01476              -4.00   -10800.00
01477              -4.00   -10800.00
01478              -4.00   -10800.00
01479              -4.00   -10800.00
01480              -4.00   -10600.00
01481              -2.00   -10400.00
01482              -2.00   -10600.00
01483              -4.00   -10400.00
01484              -4.00   -10400.00
01485              -4.00   -10400.00
01486              -4.00   -10400.00
01487              -2.00   -10000.00
01488              -2.00   -10000.00
01489              -4.00   -10000.00
01490              -6.00   -10000.00
01491              -6.00    -9800.00
01492              -4.00    -9600.00
01493              -4.00    -9600.00
01494              -2.00    -9400.00
01495              -2.00    -9400.00
01496              -6.00    -9200.00
01497              -8.00    -9200.00
01498              -4.00    -9200.00
01499              -4.00    -8800.00
01500              -4.00    -8800.00
01501              -2.00    -9000.00
01502              -4.00    -8600.00
01503              -6.00    -8400.00
01504              -8.00    -8200.00
01505              -4.00    -8200.00
01506              -2.00    -8200.00
01507              -2.00    -8000.00
01508              -4.00    -8000.00
01509              -4.00    -7600.00
01510              -6.00    -7600.00
01511              -4.00    -7400.00
01512              -4.00    -7400.00
01513              -2.00    -7200.00
01514              -4.00    -6800.00
01515              -4.00    -6800.00
01516              -4.00    -6600.00
01517              -4.00    -6600.00
01518              -8.00    -6400.00
01519              -4.00    -6400.00
01520              -2.00    -6000.00
01521              -4.00    -6000.00
01522              -4.00    -5800.00
01523              -4.00    -5600.00
01524              -6.00    -5400.00
01525              -6.00    -5200.00
01526              -4.00    -5200.00
01527              -2.00    -5000.00
01528              -4.00    -4800.00
01529              -4.00    -4800.00
01530              -4.00    -4400.00
01531              -8.00    -4200.00
01532              -4.00    -4200.00
01533              -2.00    -4000.00
01534              -2.00    -3600.00
01535              -4.00    -3600.00
01536              -6.00    -3400.00
01537              -6.00    -3200.00
01538              -8.00    -3000.00
01539              -4.00    -2800.00
01540              -4.00    -2600.00
01541              -4.00    -2400.00
01542              -6.00    -2400.00
01543              -8.00    -2200.00
01544              -8.00    -2000.00
01545              -8.00    -1800.00
01546              -4.00    -1800.00
01547              -6.00    -1400.00
01548              -4.00    -1200.00
01549              -4.00    -1200.00
01550              -8.00    -1000.00
01551              -8.00     -800.00
01552              -8.00     -600.00
01553              -4.00     -200.00
01554              -4.00     -200.00
01555               0.00        0.00
01556              -2.00      200.00
01557              14.00      400.00
01558              14.00      600.00
01559             -10.00      600.00
01560             -12.00      800.00
01561               0.00     1000.00
01562               6.00     1200.00
01563              16.00     1400.00
01564             156.00     1600.00
01565             222.00     2000.00
01566            -212.00     2200.00
01567            -248.00     2200.00
01568             -84.00     2200.00
01569              28.00     2400.00
01570             252.00     2800.00
01571             252.00     2800.00
01572            -248.00     3000.00
01573             -92.00     3400.00
01574             252.00     3200.00
01575            -248.00     3800.00
01576            -248.00     3800.00
01577             252.00     3800.00
01578            -172.00     4400.00
01579            -178.00     4000.00
01580             252.00     4400.00
01581            -248.00     5200.00
01582              62.00     4600.00
01583             182.00     4800.00
01584            -234.00     5400.00
01585              78.00     4800.00
01586              52.00     5600.00
01587            -116.00     6000.00
01588              76.00     5400.00
01589              32.00     6200.00
01590             -52.00     6200.00
01591             -84.00     6000.00
01592              96.00     6800.00
01593              40.00     6600.00
01594            -162.00     6800.00
01595             114.00     7000.00
01596              14.00     7000.00
01597            -130.00     7200.00
01598             102.00     7400.00
01599             -20.00     7800.00
01600             -28.00     7600.00
01601              44.00     7800.00
01602             -52.00     8000.00
01603              -8.00     7600.00
01604              22.00     8000.00
01605              14.00     8200.00
01606             -36.00     8200.00
01607               4.00     8600.00
01608              16.00     8600.00
01609             -56.00     8600.00
01610              38.00     8800.00
01611               8.00     8800.00
01612             -60.00     9200.00
01613              38.00     9000.00
01614               4.00     9400.00
01615             -42.00     9200.00
01616               6.00     9400.00
01617               8.00     9600.00
01618             -16.00     9600.00
01619              -2.00     9600.00
01620               4.00    10000.00
01621             -20.00     9800.00
01622               6.00    10000.00
01623               6.00    10000.00
01624             -28.00    10200.00
01625               6.00    10000.00
01626               4.00    10400.00
01627             -20.00    10400.00
01628               6.00    10400.00
01629              -2.00    10600.00
01630             -26.00    10400.00
01631               2.00    10400.00
01632              14.00    10800.00
01633             -22.00    10800.00
01634              -6.00    10600.00
01635               8.00    10800.00
01636             -16.00    10800.00
01637              -4.00    11000.00
01638               6.00    11000.00
01639             -10.00    11000.00
01640              -4.00    11000.00
01641              -2.00    11200.00
01642             -10.00    11200.00
01643              -4.00    11200.00
01644               0.00    11200.00
01645              -4.00    11200.00
01646               0.00    11000.00
01647               0.00    11200.00
01648             -12.00    11200.00
01649              -4.00    11200.00
01650               8.00    11200.00
01651              -4.00    11200.00
01652              -4.00    11200.00
01653               6.00    11200.00
01654              -8.00    11000.00
01655             -10.00    11200.00
01656               4.00    11200.00
01657              -2.00    11200.00
01658              -4.00    11000.00
01659               4.00    11200.00
01660              -2.00    11000.00
01661             -10.00    11000.00
01662               0.00    11000.00
01663              -2.00    10800.00
01664              -6.00    11000.00
01665               6.00    11000.00
01666               0.00    10600.00
01667              -4.00    10800.00
01668              -4.00    10600.00
01669              -2.00    10400.00
01670              -2.00    10400.00
01671               0.00    10400.00
01672              -4.00    10400.00
01673              -6.00    10200.00
01674               0.00    10400.00
01675              -2.00    10200.00
01676              -4.00    10000.00
01677              -4.00    10000.00
01678              -2.00     9800.00
01679              -4.00    10000.00
01680               0.00     9600.00
01681              -2.00     9600.00
01682              -2.00     9600.00
01683              -4.00     9400.00
01684              -8.00     9200.00
01685               0.00     9400.00
01686               4.00     9400.00
01687              -4.00     9200.00
01688              -4.00     8800.00
01689              -2.00     9000.00
01690              -2.00     8800.00
01691              -2.00     8600.00
01692               0.00     8600.00
01693              -4.00     8400.00
01694              -4.00     8400.00
01695              -4.00     8200.00
01696               0.00     8000.00
01697               0.00     7800.00
01698              -2.00     7800.00
01699               0.00     7600.00
01700              -2.00     7600.00
01701               0.00     7400.00
01702              -4.00     7200.00
01703               0.00     7200.00
01704               0.00     7000.00
01705               0.00     6800.00
01706              -2.00     6800.00
01707               0.00     6400.00
01708              -2.00     6400.00
01709              -4.00     6200.00
01710               0.00     6200.00
01711               0.00     6000.00
01712               0.00     5800.00
01713               2.00     5600.00
01714              -2.00     5600.00
01715              -2.00     5400.00
01716               0.00     5200.00
01717               0.00     5200.00
01718               0.00     4800.00
01719               4.00     4800.00
01720               0.00     4400.00
01721              -2.00     4400.00
01722              -2.00     4000.00
01723               0.00     3800.00
01724               0.00     3600.00
01725               4.00     3600.00
01726               0.00     3400.00
01727               0.00     3200.00
01728               0.00     3000.00
01729               0.00     3000.00
01730              -2.00     2800.00
01731               0.00     2600.00
01732               0.00     2400.00
01733               0.00     2200.00
01734               0.00     2000.00
01735              -2.00     1800.00
01736              -2.00     1600.00
01737               0.00     1400.00
01738               0.00     1400.00
01739               4.00     1200.00
01740              -2.00     1000.00
01741              -2.00      800.00
01742              -2.00      600.00
01743              -2.00      400.00
01744              -2.00        0.00
01745               2.00        0.00
01746               4.00     -200.00
01747               4.00     -400.00
01748              16.00     -400.00
01749              22.00     -800.00
01750              -2.00     -800.00
01751             -10.00    -1000.00
01752               4.00    -1200.00
01753              12.00    -1200.00
01754               8.00    -1600.00
01755              50.00    -1600.00
01756             200.00    -1800.00
01757             132.00    -2400.00
01758            -248.00    -2600.00
01759            -248.00    -2600.00
01760               8.00    -3000.00
01761              18.00    -2800.00
01762             218.00    -2600.00
01763             252.00    -3600.00
01764            -248.00    -3200.00
01765            -172.00    -3200.00
01766             252.00    -4400.00
01767            -114.00    -3600.00
01768            -248.00    -3800.00
01769             244.00    -4800.00
01770              12.00    -4000.00
01771             -56.00    -4600.00
01772              64.00    -5000.00
01773            -140.00    -4400.00
01774              40.00    -5200.00
01775             116.00    -5200.00
01776             -58.00    -5200.00
01777             -26.00    -5600.00
01778             -12.00    -5600.00
01779              30.00    -5800.00
01780              48.00    -6000.00
01781             -18.00    -6000.00
01782             -46.00    -6400.00
01783             -10.00    -6400.00
01784              76.00    -6800.00
01785               8.00    -6800.00
01786             -68.00    -6800.00
01787              16.00    -7200.00
01788              22.00    -7200.00
01789               6.00    -7400.00
01790             -10.00    -7600.00
01791             -10.00    -7600.00
01792              32.00    -8000.00
01793              -4.00    -8000.00
01794             -16.00    -8000.00
01795               0.00    -8400.00
01796               0.00    -8400.00
01797              24.00    -8400.00
01798               6.00    -8600.00
01799             -20.00    -8800.00
01800             -10.00    -9000.00
01801               8.00    -8800.00
01802              12.00    -9200.00
01803              -4.00    -9200.00
01804              -6.00    -9400.00
01805               0.00    -9600.00
01806               4.00    -9600.00
01807               0.00    -9600.00
01808             -12.00    -9600.00
01809               6.00   -10000.00
01810              14.00    -9800.00
01811              -8.00   -10000.00
01812              -8.00   -10000.00
01813               0.00   -10000.00
01814              -4.00   -10200.00
01815               0.00   -10400.00
01816               6.00   -10400.00
01817              -2.00   -10400.00
01818               0.00   -10400.00
01819               0.00   -10600.00
01820              -8.00   -10600.00
01821              -4.00   -10600.00
01822               0.00   -10600.00
01823               0.00   -10800.00
01824               6.00   -10800.00
01825               0.00   -11000.00
01826             -10.00   -10800.00
01827              -4.00   -10800.00
01828               4.00   -11200.00
01829              -2.00   -11000.00
01830               2.00   -11000.00
01831               6.00   -11200.00
01832              -4.00   -11200.00
01833              -4.00   -11200.00
01834               0.00   -11200.00
01835              -4.00   -11200.00
01836               0.00   -11200.00
01837               6.00   -11200.00
01838              -2.00   -11400.00
01839              -4.00   -11400.00
01840              -4.00   -11400.00
01841              -2.00   -11400.00
01842               0.00   -11200.00
01843               0.00   -11200.00
01844               4.00   -11400.00
01845              -2.00   -11200.00
01846              -2.00   -11200.00
01847              -4.00   -11400.00
01848              -2.00   -11400.00
01849               4.00   -11200.00
01850               0.00   -11200.00
01851               0.00   -11200.00
01852              -2.00   -11200.00
01853              -4.00   -11200.00
01854              -4.00   -11000.00
01855               0.00   -11000.00
01856               0.00   -11000.00
01857               0.00   -10800.00
01858               0.00   -10800.00
01859              -4.00   -10800.00
01860              -4.00   -10800.00
01861              -2.00   -10600.00
01862               0.00   -10600.00
01863               0.00   -10600.00
01864               0.00   -10400.00
01865              -4.00   -10400.00
01866              -4.00   -10400.00
01867              -4.00   -10400.00
01868              -2.00   -10200.00
01869              -2.00   -10000.00
01870              -2.00   -10000.00
01871              -4.00    -9800.00
01872              -4.00    -9800.00
01873              -4.00    -9600.00
01874              -4.00    -9600.00
01875              -4.00    -9600.00
01876              -2.00    -9400.00
01877               0.00    -9400.00
01878              -8.00    -9200.00
01879              -8.00    -9200.00
01880              -4.00    -9000.00
01881              -8.00    -9000.00
01882              -4.00    -9000.00
01883              -4.00    -8800.00
01884              -2.00    -8800.00
01885              -4.00    -8600.00
01886              -8.00    -8400.00
01887              -8.00    -8200.00
01888              -6.00    -8200.00
01889              -4.00    -8000.00
01890              -4.00    -7800.00
01891              -4.00    -7800.00
01892              -4.00    -7600.00
01893              -6.00    -7400.00
01894             -10.00    -7400.00
01895              -4.00    -7200.00
01896              -4.00    -7200.00
01897              -2.00    -6800.00
01898              -4.00    -6600.00
01899              -4.00    -6600.00
01900              -4.00    -6400.00
01901              -6.00    -6200.00
01902              -4.00    -6000.00
01903              -4.00    -5800.00
01904              -4.00    -5800.00
01905              -4.00    -5600.00
01906              -8.00    -5400.00
01907              -8.00    -5200.00
01908              -4.00    -5000.00
01909              -4.00    -5200.00
01910              -2.00    -4800.00
01911              -4.00    -4800.00
01912              -4.00    -4400.00
01913              -4.00    -4400.00
01914              -8.00    -4200.00
01915              -8.00    -3800.00
01916              -4.00    -3800.00
01917              -2.00    -3600.00
01918              -4.00    -3400.00
01919              -8.00    -3400.00
01920              -8.00    -3200.00
01921              -8.00    -2800.00
01922              -4.00    -2800.00
01923              -2.00    -2600.00
01924              -4.00    -2400.00
01925              -4.00    -2000.00
01926              -8.00    -2000.00
01927              -8.00    -1800.00
01928              -4.00    -1600.00
01929              -4.00    -1600.00
01930              -4.00    -1200.00
01931              -6.00    -1000.00
01932              -8.00    -1000.00
01933              -6.00     -800.00
01934             -10.00     -400.00
01935              -8.00     -400.00
01936              -4.00     -400.00
01937              -6.00        0.00
01938               0.00      200.00
01939               4.00      400.00
01940              16.00      400.00
01941               2.00      600.00
01942             -18.00     1000.00
01943              -4.00     1000.00
01944               6.00     1200.00
01945               4.00     1400.00
01946              68.00     1600.00
01947             246.00     2000.00
01948              26.00     2200.00
01949            -248.00     2200.00
01950            -248.00     2400.00
01951               6.00     2200.00
01952             166.00     2800.00
01953             252.00     3000.00
01954            -248.00     2800.00
01955            -248.00     3200.00
01956             252.00     3200.00
01957             252.00     3400.00
01958            -248.00     4000.00
01959             252.00     3600.00
01960             252.00     4200.00
01961            -248.00     4400.00
01962             204.00     4000.00
01963               0.00     4800.00
01964            -208.00     4800.00
01965             252.00     4600.00
01966            -106.00     5400.00
01967            -110.00     5200.00
01968             150.00     5200.00
01969            -100.00     6000.00
01970              -4.00     5600.00
01971              80.00     5600.00
01972             -20.00     6400.00
01973             -88.00     6000.00
01974              -2.00     6400.00
01975             134.00     6800.00
01976            -124.00     6400.00
01977             -26.00     7000.00
01978             134.00     6800.00
01979            -140.00     7400.00
01980              14.00     7200.00
01981              68.00     7400.00
01982             -74.00     7800.00
01983              44.00     7600.00
01984             -16.00     8000.00
01985             -44.00     7800.00
01986              24.00     7800.00
01987              20.00     8400.00
01988             -16.00     8000.00
01989             -32.00     8400.00
01990              32.00     8600.00
01991             -32.00     8400.00
01992             -12.00     8800.00
01993              54.00     8800.00
01994             -56.00     9200.00
01995              -6.00     9200.00
01996              46.00     9200.00
01997             -36.00     9400.00
01998             -18.00     9200.00
01999              18.00     9600.00
02000              -4.00     9400.00
02001             -12.00     9600.00
02002               6.00     9800.00
02003             -12.00     9800.00
02004             -12.00    10000.00
02005              16.00    10000.00
02006             -18.00    10000.00
02007             -16.00    10200.00
02008              20.00    10200.00
02009             -16.00    10200.00
02010             -10.00    10200.00
02011              12.00    10400.00
02012             -20.00    10400.00
02013             -14.00    10400.00
02014              16.00    10600.00
02015              -6.00    10800.00
02016             -18.00    10800.00
02017               4.00    10800.00
02018             -10.00    10800.00
02019             -10.00    10800.00
02020               4.00    11000.00
02021              -2.00    11000.00
02022              -8.00    11000.00
02023               0.00    11200.00
02024              -6.00    11000.00
02025             -10.00    11000.00
02026               0.00    11000.00
02027              -2.00    11200.00
02028              -6.00    11200.00
02029               4.00    11200.00
02030              -4.00    11200.00
02031             -10.00    11200.00
02032               0.00    11200.00
02033              -2.00    11200.00
02034              -8.00    11200.00
02035               2.00    11200.00
02036              -2.00    11200.00
02037             -10.00    11200.00
02038               0.00    11200.00
02039               0.00    11200.00
02040              -4.00    11000.00
02041               0.00    11200.00
02042               0.00    11000.00
02043              -4.00    11000.00
02044              -2.00    11000.00
02045              -4.00    11000.00
02046              -4.00    10800.00
02047               2.00    10800.00
02048               2.00    10800.00
02049              -2.00    10800.00
02050              -2.00    10800.00
02051              -4.00    10800.00
02052              -4.00    10600.00
02053               0.00    10400.00
02054               0.00    10400.00
02055              -4.00    10400.00
02056              -2.00    10400.00
02057               0.00    10200.00
02058              -2.00    10200.00
02059              -4.00    10200.00
02060               2.00    10000.00
02061               0.00    10000.00
02062              -2.00     9800.00
02063              -4.00     9800.00
02064              -4.00     9600.00
02065              -4.00     9600.00
02066              -2.00     9600.00
02067              -2.00     9400.00
02068               0.00     9200.00
02069              -2.00     9200.00
02070              -4.00     9200.00
02071              -2.00     8800.00
02072              -2.00     8800.00
02073              -4.00     8600.00
02074              -2.00     8600.00
02075               0.00     8400.00
02076              -2.00     8400.00
02077              -4.00     8400.00
02078              -4.00     8000.00
02079              -2.00     7800.00
02080              -2.00     7800.00
02081              -2.00     7800.00
02082              -2.00     7600.00
02083              -4.00     7400.00
02084              -4.00     7400.00
02085              -2.00     7200.00
02086              -2.00     7000.00
02087              -2.00     6800.00
02088              -4.00     6800.00
02089               0.00     6400.00
02090               0.00     6400.00
02091              -4.00     6400.00
02092              -2.00     6200.00
02093               0.00     6000.00
02094               0.00     6000.00
02095              -2.00     5800.00
02096               0.00     5600.00
02097              -2.00     5200.00
02098              -2.00     5200.00
02099               0.00     5000.00
02100              -2.00     4800.00
02101               0.00     4800.00
02102               0.00     4600.00
02103              -2.00     4200.00
02104              -2.00     4200.00
02105              -2.00     4000.00
02106               0.00     3800.00
02107               0.00     3600.00
02108               0.00     3600.00
02109               0.00     3200.00
02110               0.00     3000.00
02111               0.00     3000.00
02112               0.00     2800.00
02113               0.00     2800.00
02114               4.00     2400.00
02115               4.00     2400.00
02116              -2.00     2200.00
02117              -2.00     2000.00
02118               0.00     1600.00
02119              -2.00     1400.00
02120               0.00     1400.00
02121               4.00     1400.00
02122               0.00     1000.00
02123               0.00      800.00
02124               0.00      600.00
02125               0.00      600.00
02126               0.00      200.00
02127               0.00      200.00
02128               4.00        0.00
02129               4.00     -200.00
02130               6.00     -400.00
02131              22.00     -600.00
02132              10.00     -800.00
02133             -10.00     -800.00
02134              -2.00    -1200.00
02135               8.00    -1200.00
02136              10.00    -1400.00
02137              22.00    -1600.00
02138             124.00    -1600.00
02139             224.00    -2200.00
02140             -88.00    -2600.00
02141            -248.00    -2600.00
02142            -132.00    -2800.00
02143              52.00    -2800.00
02144              60.00    -2400.00
02145             252.00    -3200.00
02146             -74.00    -3600.00
02147            -248.00    -2800.00
02148             252.00    -4000.00
02149             252.00    -4000.00
02150            -248.00    -3400.00
02151              44.00    -4400.00
02152             198.00    -4400.00
02153            -118.00    -4200.00
02154              64.00    -5000.00
02155             -60.00    -4800.00
02156             -84.00    -4800.00
02157             136.00    -5600.00
02158              10.00    -5200.00
02159             -56.00    -5400.00
02160             -12.00    -5800.00
02161               2.00    -5800.00
02162              56.00    -6000.00
02163              14.00    -6000.00
02164             -40.00    -6400.00
02165             -40.00    -6400.00
02166              40.00    -6400.00
02167              62.00    -6800.00
02168             -58.00    -6800.00
02169             -22.00    -7200.00
02170              30.00    -7200.00
02171               8.00    -7200.00
02172               4.00    -7600.00
02173             -24.00    -7600.00
02174              16.00    -7600.00
02175              24.00    -8000.00
02176             -24.00    -8000.00
02177              -4.00    -8000.00
02178               0.00    -8200.00
02179              12.00    -8400.00
02180              24.00    -8600.00
02181             -12.00    -8600.00
02182             -16.00    -9000.00
02183               4.00    -8800.00
02184              20.00    -9000.00
02185               4.00    -9200.00
02186              -4.00    -9200.00
02187               0.00    -9600.00
02188               4.00    -9600.00
02189               6.00    -9600.00
02190              -6.00    -9600.00
02191             -10.00    -9800.00
02192              16.00   -10000.00
02193               6.00   -10000.00
02194             -10.00   -10000.00
02195              -2.00   -10000.00
02196               0.00   -10200.00
02197              -2.00   -10200.00
02198               4.00   -10200.00
02199               4.00   -10400.00
02200              -2.00   -10400.00
02201               4.00   -10600.00
02202              -2.00   -10600.00
02203              -4.00   -10600.00
02204              -2.00   -10800.00
02205               4.00   -10800.00
02206               4.00   -10800.00
02207               4.00   -10800.00
02208              -6.00   -10800.00
02209              -8.00   -11200.00
02210               0.00   -11000.00
02211               2.00   -11200.00
02212              -4.00   -11000.00
02213               4.00   -11200.00
02214               0.00   -11200.00
02215              -6.00   -11200.00
02216              -4.00   -11200.00
02217               0.00   -11200.00
02218              -2.00   -11400.00
02219               4.00   -11200.00
02220               4.00   -11400.00
02221              -4.00   -11400.00
02222              -4.00   -11200.00
02223              -2.00   -11400.00
02224               0.00   -11200.00
02225               0.00   -11200.00
02226               4.00   -11400.00
02227              -2.00   -11200.00
02228              -4.00   -11400.00
02229              -4.00   -11200.00
02230              -4.00   -11200.00
02231               0.00   -11200.00
02232               4.00   -11000.00
02233               0.00   -11200.00
02234              -2.00   -11200.00
02235              -2.00   -11000.00
02236              -4.00   -11000.00
02237              -4.00   -11200.00
02238               0.00   -10800.00
02239               0.00   -10800.00
02240               0.00   -10800.00
02241              -2.00   -10800.00
02242              -4.00   -10800.00
02243              -4.00   -10800.00
02244              -2.00   -10800.00
02245               0.00   -10600.00
02246               0.00   -10600.00
02247               0.00   -10600.00
02248              -4.00   -10400.00
02249              -4.00   -10400.00
02250              -4.00   -10200.00
02251              -2.00   -10200.00
02252               0.00   -10000.00
02253               0.00   -10000.00
02254              -4.00    -9800.00
02255              -4.00    -9800.00
02256              -4.00    -9800.00
02257              -4.00    -9600.00
02258              -2.00    -9600.00
02259              -2.00    -9400.00
02260              -2.00    -9400.00
02261              -4.00    -9200.00
02262              -8.00    -9000.00
02263              -6.00    -9000.00
02264              -4.00    -9000.00
02265              -4.00    -8800.00
02266              -2.00    -8800.00
02267              -4.00    -8600.00
02268              -8.00    -8400.00
02269              -8.00    -8200.00
02270              -4.00    -8200.00
02271              -4.00    -8000.00
02272              -4.00    -8000.00
02273              -2.00    -7800.00
02274              -4.00    -7600.00
02275              -6.00    -7600.00
02276              -8.00    -7400.00
02277              -4.00    -7200.00
02278              -4.00    -7200.00
02279              -4.00    -6800.00
02280              -6.00    -6800.00
02281              -6.00    -6800.00
02282              -8.00    -6600.00
02283              -8.00    -6400.00
02284              -4.00    -6000.00
02285              -4.00    -6200.00
02286              -4.00    -5800.00
02287              -4.00    -5800.00
02288              -8.00    -5400.00
02289              -8.00    -5400.00
02290              -4.00    -5200.00
02291              -4.00    -5000.00
02292              -4.00    -5000.00
02293              -4.00    -4600.00
02294              -4.00    -4600.00
02295              -8.00    -4600.00
02296              -6.00    -4200.00
02297              -8.00    -4000.00
02298              -4.00    -4000.00
02299              -4.00    -3600.00
02300              -4.00    -3600.00
02301              -4.00    -3400.00
02302              -4.00    -3200.00
02303              -8.00    -3000.00
02304              -4.00    -2800.00
02305              -4.00    -2600.00
02306              -4.00    -2600.00
02307              -4.00    -2400.00
02308              -4.00    -2200.00
02309              -8.00    -2000.00
02310              -8.00    -1800.00
02311              -4.00    -1600.00
02312              -4.00    -1400.00
02313              -4.00    -1200.00
02314              -4.00    -1000.00
02315              -4.00    -1000.00
02316              -8.00     -800.00
02317              -8.00     -400.00
02318              -4.00     -200.00
02319              -4.00        0.00
02320              -2.00        0.00
02321               0.00        0.00
02322              16.00      400.00
02323              12.00      600.00
02324             -10.00      800.00
02325             -14.00     1000.00
02326               4.00     1000.00
02327               4.00     1200.00
02328              20.00     1400.00
02329             170.00     1600.00
02330             206.00     2000.00
02331            -248.00     2200.00
02332            -248.00     2200.00
02333             -64.00     2200.00
02334              36.00     2600.00
02335             252.00     2800.00
02336             252.00     3000.00
02337            -248.00     3000.00
02338              36.00     3400.00
02339             252.00     3200.00
02340            -248.00     3800.00
02341            -248.00     3800.00
02342             252.00     3600.00
02343            -246.00     4400.00
02344            -116.00     4000.00
02345             246.00     4600.00
02346            -248.00     5000.00
02347             108.00     4600.00
02348             142.00     5000.00
02349            -234.00     5600.00
02350             102.00     4800.00
02351              28.00     5800.00
02352             -98.00     6000.00
02353              86.00     5600.00
02354              24.00     6200.00
02355             -58.00     6200.00
02356             -80.00     6000.00
02357             114.00     6800.00
02358              14.00     6400.00
02359            -150.00     6800.00
02360             134.00     7000.00
02361             -20.00     7200.00
02362            -110.00     7400.00
02363             108.00     7200.00
02364             -42.00     7800.00
02365             -10.00     7400.00
02366              38.00     8000.00
02367             -58.00     8000.00
02368               2.00     7800.00
02369              24.00     8400.00
02370               8.00     8400.00
02371             -36.00     8000.00
02372               8.00     8600.00
02373              12.00     8400.00
02374             -48.00     8800.00
02375              44.00     8800.00
02376              -2.00     8800.00
02377             -52.00     9000.00
02378              44.00     9200.00
02379              -4.00     9400.00
02380             -36.00     9200.00
02381              14.00     9400.00
02382               6.00     9600.00
02383             -12.00     9600.00
02384               0.00    10000.00
02385               2.00     9800.00
02386             -18.00     9800.00
02387               8.00    10000.00
02388               6.00    10000.00
02389             -24.00    10200.00
02390               8.00    10200.00
02391               4.00    10400.00
02392             -20.00    10400.00
02393               6.00    10400.00
02394              -4.00    10600.00
02395             -24.00    10400.00
02396               8.00    10800.00
02397              12.00    10800.00
02398             -20.00    10800.00
02399              -4.00    11000.00
02400               6.00    10800.00
02401             -14.00    11000.00
02402              -2.00    11000.00
02403               4.00    11000.00
02404             -10.00    11200.00
02405              -2.00    11000.00
02406               0.00    11200.00
02407             -12.00    11200.00
02408              -2.00    11000.00
02409               0.00    11200.00
02410              -4.00    11200.00
02411               0.00    11000.00
02412              -2.00    11200.00
02413             -12.00    11200.00
02414              -4.00    11200.00
02415               2.00    11000.00
02416              -8.00    11200.00
02417               0.00    11000.00
02418              -2.00    11200.00
02419              -8.00    11200.00
02420              -2.00    11200.00
02421               0.00    11000.00
02422              -4.00    11000.00
02423              -2.00    11200.00
02424               0.00    11200.00
02425              -4.00    11000.00
02426              -4.00    11000.00
02427              -4.00    11000.00
02428              -4.00    11000.00
02429               0.00    10800.00
02430               2.00    10800.00
02431              -4.00    10800.00
02432              -2.00    10800.00
02433               0.00    10600.00
02434              -4.00    10600.00
02435              -4.00    10600.00
02436               4.00    10400.00
02437              -2.00    10400.00
02438              -2.00    10400.00
02439               0.00    10400.00
02440              -4.00    10200.00
02441              -4.00    10000.00
02442              -2.00    10200.00
02443               2.00    10000.00
02444               0.00    10000.00
02445              -2.00    10000.00
02446              -2.00     9600.00
02447              -2.00     9800.00
02448              -2.00     9400.00
02449               0.00     9400.00
02450               2.00     9400.00
02451               0.00     9200.00
02452              -4.00     9200.00
02453              -4.00     8800.00
02454              -2.00     9000.00
02455              -4.00     8800.00
02456              -4.00     8600.00
02457               0.00     8400.00
02458              -2.00     8400.00
02459              -4.00     8400.00
02460              -4.00     8400.00
02461              -4.00     8000.00
02462              -2.00     8000.00
02463               0.00     7800.00
02464               0.00     7600.00
02465              -4.00     7600.00
02466              -2.00     7200.00
02467              -2.00     7400.00
02468              -2.00     7200.00
02469              -2.00     7000.00
02470              -2.00     6800.00
02471              -2.00     6400.00
02472               0.00     6400.00
02473              -2.00     6400.00
02474              -4.00     6200.00
02475              -2.00     6000.00
02476               0.00     6000.00
02477               0.00     5600.00
02478              -2.00     5600.00
02479              -4.00     5600.00
02480              -2.00     5400.00
02481               0.00     5200.00
02482               2.00     5000.00
02483              -2.00     4800.00
02484               4.00     4600.00
02485               0.00     4600.00
02486              -2.00     4200.00
02487              -2.00     4000.00
02488              -2.00     3800.00
02489              -2.00     3800.00
02490               2.00     3600.00
02491               0.00     3400.00
02492               0.00     3200.00
02493              -2.00     3000.00
02494              -2.00     3000.00
02495               0.00     2800.00
02496               2.00     2600.00
02497               2.00     2200.00
02498              -2.00     2200.00
02499               0.00     2000.00
02500              -2.00     1800.00
02501              -2.00     1600.00
02502               0.00     1600.00
02503               2.00     1400.00
02504               4.00     1200.00
02505               2.00     1000.00
02506              -2.00     1000.00
02507               0.00      600.00
02508              -2.00      400.00
02509               0.00        0.00
02510               4.00        0.00
02511               4.00     -200.00
02512               6.00     -200.00
02513              20.00     -800.00
02514              20.00     -800.00
02515              -4.00     -800.00
02516              -4.00    -1000.00
02517               8.00    -1000.00
02518              12.00    -1400.00
02519              12.00    -1600.00
02520              62.00    -1600.00
02521             214.00    -1800.00
02522             104.00    -2600.00
02523            -248.00    -2600.00
02524            -248.00    -2800.00
02525              28.00    -2800.00
02526              16.00    -2800.00
02527             248.00    -2800.00
02528             252.00    -3600.00
02529            -248.00    -3200.00
02530             -92.00    -3400.00
02531             252.00    -4400.00
02532            -186.00    -3400.00
02533            -248.00    -4000.00
02534             252.00    -4800.00
02535             -22.00    -4000.00
02536             -34.00    -4800.00
02537              52.00    -5000.00
02538            -144.00    -4600.00
02539              62.00    -5200.00
02540             102.00    -5200.00
02541             -60.00    -5000.00
02542             -24.00    -5800.00
02543             -10.00    -5800.00
02544              36.00    -5800.00
02545              44.00    -6000.00
02546             -20.00    -6200.00
02547             -48.00    -6600.00
02548              -6.00    -6400.00
02549              78.00    -6800.00
02550              -4.00    -6800.00
02551             -64.00    -6800.00
02552              22.00    -7200.00
02553              22.00    -7200.00
02554               6.00    -7400.00
02555             -12.00    -7600.00
02556             -10.00    -7600.00
02557              34.00    -7800.00
02558              -8.00    -8000.00
02559             -16.00    -8200.00
02560               4.00    -8200.00
02561               4.00    -8200.00
02562              24.00    -8600.00
02563               4.00    -8600.00
02564             -20.00    -8800.00
02565              -8.00    -8800.00
02566              14.00    -8800.00
02567              12.00    -9200.00
02568              -2.00    -9200.00
02569              -2.00    -9200.00
02570               2.00    -9600.00
02571               6.00    -9400.00
02572               2.00    -9600.00
02573             -12.00    -9600.00
02574               8.00   -10000.00
02575              14.00    -9800.00
02576              -4.00    -9800.00
02577              -4.00   -10000.00
02578               0.00   -10000.00
02579              -2.00   -10400.00
02580               4.00   -10200.00
02581               8.00   -10400.00
02582              -2.00   -10400.00
02583               0.00   -10600.00
02584               4.00   -10800.00
02585              -6.00   -10600.00
02586              -4.00   -10800.00
02587               0.00   -10800.00
02588               4.00   -10800.00
02589               4.00   -10800.00
02590               0.00   -10800.00
02591             -10.00   -10800.00
02592              -4.00   -11200.00
02593               4.00   -11000.00
02594              -2.00   -11000.00
02595               4.00   -11200.00
02596               4.00   -11200.00
02597              -4.00   -11200.00
02598              -8.00   -11400.00
02599              -2.00   -11200.00
02600              -2.00   -11400.00
02601               0.00   -11200.00
02602               4.00   -11400.00
02603              -4.00   -11400.00
02604              -6.00   -11200.00
02605              -4.00   -11400.00
02606              -2.00   -11400.00
02607              -2.00   -11400.00
02608               2.00   -11400.00
02609              -2.00   -11400.00
02610              -4.00   -11200.00
02611              -2.00   -11400.00
02612              -4.00   -11200.00
02613              -2.00   -11200.00
02614               0.00   -11000.00
02615               4.00   -11200.00
02616               0.00   -11200.00
02617              -6.00   -11200.00
02618              -4.00   -11000.00
02619              -4.00   -11000.00
02620              -4.00   -11200.00
02621               6.00   -10800.00
02622              -2.00   -10800.00
02623              -4.00   -11000.00
02624               0.00   -10800.00
02625              -8.00   -10800.00
02626             -10.00   -10600.00
02627               4.00   -10600.00
02628              -2.00   -10600.00
02629              -2.00   -10400.00
02630              -4.00   -10400.00
02631              -6.00   -10400.00
02632              -2.00   -10400.00
02633              -4.00   -10000.00
02634              -2.00   -10200.00
02635               0.00   -10000.00
02636              -2.00    -9800.00
02637              -4.00    -9800.00
02638              -4.00    -9800.00
02639              -2.00    -9800.00
02640              -4.00    -9600.00
02641              -2.00    -9400.00
02642              -2.00    -9600.00
02643              -2.00    -9200.00
02644              -8.00    -9200.00
02645              -4.00    -9000.00
02646              -2.00    -9000.00
02647              -2.00    -9000.00
02648              -2.00    -8800.00
02649              -2.00    -8800.00
02650              -4.00    -8400.00
02651              -4.00    -8400.00
02652              -4.00    -8400.00
02653              -6.00    -8200.00
02654              -4.00    -8000.00
02655              -2.00    -8000.00
02656              -4.00    -7600.00
02657              -4.00    -7600.00
02658              -8.00    -7400.00
02659              -8.00    -7400.00
02660              -4.00    -7200.00
02661              -4.00    -7200.00
02662              -2.00    -6800.00
02663              -4.00    -6800.00
02664              -8.00    -6600.00
02665             -10.00    -6400.00
02666              -4.00    -6400.00
02667              -4.00    -6000.00
02668              -4.00    -6000.00
02669              -4.00    -5800.00
02670              -4.00    -5800.00
02671              -8.00    -5400.00
02672              -8.00    -5400.00
02673              -4.00    -5200.00
02674              -4.00    -4800.00
02675              -4.00    -4800.00
02676              -4.00    -4800.00
02677              -8.00    -4400.00
02678              -4.00    -4400.00
02679              -8.00    -4000.00
02680              -4.00    -4000.00
02681              -2.00    -3600.00
02682              -4.00    -3600.00
02683              -4.00    -3400.00
02684              -6.00    -3200.00
02685              -8.00    -3200.00
02686              -4.00    -3000.00
02687              -4.00    -2800.00
02688              -4.00    -2600.00
02689              -4.00    -2400.00
02690              -4.00    -2400.00
02691              -8.00    -2000.00
02692              -8.00    -1800.00
02693              -4.00    -1600.00
02694              -4.00    -1600.00
02695              -4.00    -1200.00
02696              -2.00    -1000.00
02697              -4.00    -1000.00
02698              -4.00     -800.00
02699              -4.00     -400.00
02700              -4.00     -400.00
02701              -2.00     -200.00
02702               0.00        0.00
02703               0.00        0.00
02704               8.00      400.00
02705              22.00      600.00
02706               0.00      800.00
02707             -12.00     1000.00
02708              -2.00     1000.00
02709               8.00     1200.00
02710               8.00     1400.00
02711              82.00     1600.00
02712             252.00     1800.00
02713             -12.00     2200.00
02714            -248.00     2200.00
02715            -212.00     2200.00
02716              12.00     2400.00
02717             204.00     2600.00
02718             252.00     3000.00
02719            -248.00     2800.00
02720            -248.00     3200.00
02721             252.00     3200.00
02722             224.00     3600.00
02723            -248.00     4000.00
02724             252.00     3600.00
02725             222.00     4200.00
02726            -248.00     4400.00
02727             246.00     4000.00
02728             -60.00     4800.00
02729            -188.00     4800.00
02730             252.00     4600.00
02731             -98.00     5600.00
02732             -72.00     4800.00
02733             144.00     5200.00
02734            -122.00     6000.00
02735              20.00     5400.00
02736              74.00     6000.00
02737             -64.00     6200.00
02738            -104.00     6000.00
02739              40.00     6400.00
02740             148.00     6800.00
02741            -154.00     6400.00
02742              -2.00     7000.00
02743             126.00     7000.00
02744            -132.00     7000.00
02745              28.00     7000.00
02746              40.00     7600.00
02747             -68.00     7600.00
02748              54.00     7600.00
02749             -20.00     8000.00
02750             -44.00     7800.00
02751              20.00     8000.00
02752              16.00     8400.00
02753             -14.00     8000.00
02754             -18.00     8400.00
02755              32.00     8600.00
02756             -44.00     8600.00
02757               4.00     8800.00
02758              54.00     8800.00
02759             -60.00     9000.00
02760              -8.00     9000.00
02761              36.00     9200.00
02762             -36.00     9400.00
02763             -10.00     9200.00
02764              16.00     9600.00
02765              -4.00     9400.00
02766              -2.00     9600.00
02767               6.00    10000.00
02768             -12.00    10000.00
02769             -10.00    10000.00
02770              20.00    10200.00
02771             -20.00    10200.00
02772             -10.00    10200.00
02773              22.00    10200.00
02774             -16.00    10400.00
02775              -8.00    10400.00
02776               8.00    10600.00
02777             -18.00    10400.00
02778              -8.00    10400.00
02779              22.00    10800.00
02780              -8.00    10600.00
02781             -16.00    10800.00
02782               6.00    11000.00
02783             -10.00    10800.00
02784             -18.00    10800.00
02785               4.00    11000.00
02786              -4.00    11200.00
02787              -4.00    11000.00
02788               4.00    11200.00
02789              -8.00    11200.00
02790             -10.00    11200.00
02791               4.00    11000.00
02792              -4.00    11200.00
02793              -6.00    11200.00
02794               0.00    11200.00
02795             -10.00    11200.00
02796             -10.00    11200.00
02797               4.00    11200.00
02798              -2.00    11000.00
02799              -4.00    11200.00
02800               4.00    11200.00
02801              -2.00    11200.00
02802             -10.00    11200.00
02803              -2.00    11000.00
02804              -4.00    11200.00
02805              -4.00    11000.00
02806               0.00    11000.00
02807              -2.00    11000.00
02808              -4.00    11000.00
02809              -4.00    11000.00
02810              -2.00    11000.00
02811              -4.00    10800.00
02812               4.00    10800.00
02813               0.00    10800.00
02814              -4.00    10800.00
02815              -2.00    10800.00
02816              -4.00    10600.00
02817              -8.00    10600.00
02818               0.00    10400.00
02819               2.00    10400.00
02820              -4.00    10400.00
02821               0.00    10200.00
02822               0.00    10200.00
02823              -4.00    10200.00
02824              -2.00    10000.00
02825               0.00    10000.00
02826              -2.00    10000.00
02827               2.00     9800.00
02828              -4.00     9800.00
02829              -2.00     9600.00
02830              -2.00     9600.00
02831              -2.00     9400.00
02832               2.00     9400.00
02833               0.00     9400.00
02834              -2.00     9200.00
02835              -4.00     9000.00
02836              -4.00     8800.00
02837               0.00     8800.00
02838               0.00     8800.00
02839               0.00     8600.00
02840               0.00     8400.00
02841              -4.00     8400.00
02842              -4.00     8400.00
02843               0.00     8200.00
02844              -2.00     8000.00
02845              -2.00     7800.00
02846               0.00     7800.00
02847              -2.00     7600.00
02848              -2.00     7600.00
02849              -2.00     7400.00
02850              -2.00     7000.00
02851              -2.00     7000.00
02852              -2.00     7000.00
02853              -2.00     6800.00
02854               0.00     6400.00
02855              -2.00     6400.00
02856              -4.00     6200.00
02857              -2.00     6200.00
02858              -2.00     6000.00
02859              -2.00     5800.00
02860               0.00     5600.00
02861              -2.00     5600.00
02862              -2.00     5400.00
02863              -2.00     5200.00
02864              -2.00     5000.00
02865               0.00     4800.00
02866               0.00     4800.00
02867              -2.00     4600.00
02868              -2.00     4200.00
02869              -2.00     4200.00
02870              -2.00     4000.00
02871               0.00     3800.00
02872               0.00     3600.00
02873               4.00     3400.00
02874              -2.00     3200.00
02875              -2.00     3000.00
02876               0.00     3200.00
02877              -2.00     2800.00
02878               2.00     2800.00
02879               4.00     2400.00
02880               0.00     2200.00
02881              -2.00     2000.00
02882               0.00     2000.00
02883               0.00     1600.00
02884               0.00     1400.00
02885               4.00     1400.00
02886               2.00     1200.00
02887               4.00     1000.00
02888               0.00      800.00
02889               0.00      800.00
02890               0.00      400.00
02891               2.00      200.00
02892               2.00        0.00
02893               6.00     -200.00
02894               6.00     -400.00
02895              12.00     -400.00
02896              24.00     -800.00
02897               8.00     -800.00
02898              -8.00    -1000.00
02899               0.00    -1200.00
02900              14.00    -1200.00
02901              10.00    -1600.00
02902              28.00    -1600.00
02903             140.00    -1800.00
02904             220.00    -2200.00
02905            -124.00    -2600.00
02906            -248.00    -2600.00
02907             -98.00    -2800.00
02908              48.00    -2800.00
02909              78.00    -2600.00
02910             252.00    -3200.00
02911            -144.00    -3600.00
02912            -248.00    -2800.00
02913             252.00    -4000.00
02914             252.00    -4000.00
02915            -248.00    -3400.00
02916              92.00    -4600.00
02917             172.00    -4400.00
02918            -118.00    -4200.00
02919              76.00    -5000.00
02920             -82.00    -4600.00
02921             -66.00    -4800.00
02922             140.00    -5400.00
02923              -6.00    -5200.00
02924             -52.00    -5400.00
02925             -12.00    -5600.00
02926               6.00    -5800.00
02927              58.00    -6000.00
02928               6.00    -6000.00
02929             -40.00    -6400.00
02930             -36.00    -6400.00
02931              46.00    -6600.00
02932              56.00    -6800.00
02933             -66.00    -6800.00
02934             -16.00    -7200.00
02935              30.00    -7200.00
02936               4.00    -7200.00
02937               0.00    -7600.00
02938             -26.00    -7600.00
02939              22.00    -7800.00
02940              20.00    -8000.00
02941             -26.00    -8000.00
02942              -2.00    -8000.00
02943              -4.00    -8400.00
02944              14.00    -8400.00
02945              22.00    -8400.00
02946             -18.00    -8800.00
02947             -16.00    -8800.00
02948               4.00    -9000.00
02949              14.00    -9200.00
02950               4.00    -9000.00
02951              -2.00    -9200.00
02952              -2.00    -9400.00
02953               2.00    -9600.00
02954               8.00    -9600.00
02955             -10.00    -9800.00
02956              -4.00    -9800.00
02957              20.00    -9800.00
02958               2.00   -10000.00
02959              -8.00   -10200.00
02960               2.00   -10000.00
02961               0.00   -10200.00
02962              -2.00   -10400.00
02963               6.00   -10400.00
02964               4.00   -10400.00
02965              -2.00   -10600.00
02966               6.00   -10600.00
02967              -4.00   -10600.00
02968              -6.00   -10800.00
02969               2.00   -10800.00
02970               4.00   -10800.00
02971               6.00   -10800.00
02972               6.00   -10800.00
02973              -6.00   -10800.00
02974              -6.00   -10800.00
02975               2.00   -10800.00
02976               0.00   -11000.00
02977              -2.00   -11200.00
02978               6.00   -11200.00
02979               0.00   -11200.00
02980              -8.00   -11200.00
02981              -4.00   -11200.00
02982              -2.00   -11200.00
02983              -2.00   -11200.00
02984               6.00   -11200.00
02985               4.00   -11400.00
02986              -4.00   -11200.00
02987              -4.00   -11200.00
02988              -4.00   -11400.00
02989              -2.00   -11200.00
02990               0.00   -11400.00
02991               0.00   -11400.00
02992              -2.00   -11200.00
02993              -2.00   -11400.00
02994              -4.00   -11200.00
02995              -4.00   -11200.00
02996               0.00   -11200.00
02997               4.00   -11200.00
02998              -2.00   -11200.00
02999              -4.00   -11200.00
03000              -4.00   -11200.00
03001              -6.00   -11200.00
03002              -4.00   -11200.00
03003               2.00   -10800.00
03004              -2.00   -10800.00
03005               0.00   -10800.00
03006              -4.00   -10800.00
03007              -4.00   -10800.00
03008              -4.00   -10600.00
03009              -4.00   -10600.00
03010              -2.00   -10600.00
03011               0.00   -10400.00
03012              -4.00   -10400.00
03013              -4.00   -10400.00
03014              -4.00   -10200.00
03015              -4.00   -10200.00
03016              -2.00   -10400.00
03017               0.00   -10000.00
03018               0.00   -10000.00
03019              -2.00   -10000.00
03020              -4.00    -9800.00
03021              -4.00    -9600.00
03022              -4.00    -9600.00
03023              -2.00    -9600.00
03024              -2.00    -9400.00
03025              -2.00    -9200.00
03026              -4.00    -9200.00
03027              -6.00    -9000.00
03028              -4.00    -9000.00
03029              -2.00    -8800.00
03030              -4.00    -8800.00
03031              -2.00    -8600.00
03032              -4.00    -8400.00
03033              -6.00    -8400.00
03034              -4.00    -8200.00
03035              -4.00    -8200.00
03036              -2.00    -8000.00
03037              -2.00    -8000.00
03038              -2.00    -7800.00
03039              -2.00    -7600.00
03040              -8.00    -7600.00
03041              -8.00    -7400.00
03042              -4.00    -7200.00
03043              -2.00    -7200.00
03044              -2.00    -6800.00
03045              -4.00    -6800.00
03046              -4.00    -6600.00
03047              -8.00    -6600.00
03048              -8.00    -6400.00
03049              -4.00    -6200.00
03050              -4.00    -6000.00
03051              -2.00    -5800.00
03052              -4.00    -5400.00
03053              -8.00    -5600.00
03054              -8.00    -5200.00
03055              -8.00    -5200.00
03056              -4.00    -5200.00
03057              -4.00    -4800.00
03058              -4.00    -4800.00
03059              -4.00    -4600.00
03060              -8.00    -4400.00
03061             -10.00    -4200.00
03062              -4.00    -4000.00
03063              -4.00    -4000.00
03064              -4.00    -3600.00
03065              -4.00    -3600.00
03066             -10.00    -3400.00
03067             -14.00    -3200.00
03068             -12.00    -2800.00
03069             -10.00    -2800.00
03070               0.00    -2800.00
03071               6.00    -2400.00
03072               0.00    -2400.00
03073              -4.00    -2000.00
03074             -14.00    -1800.00
03075             -12.00    -1800.00
03076              -8.00    -1600.00
03077              -2.00    -1400.00
03078              -2.00    -1200.00
03079              -2.00    -1000.00
03080              -8.00     -800.00
03081             -10.00     -800.00
03082              -8.00     -400.00
03083              -2.00     -400.00
03084               0.00     -200.00
03085              -2.00        0.00
03086               0.00      200.00
03087              20.00      600.00
03088              12.00      600.00
03089             -10.00     1000.00
03090              -8.00     1000.00
03091               6.00     1200.00
03092               6.00     1200.00
03093              28.00     1600.00
03094             192.00     1800.00
03095             186.00     2000.00
03096            -248.00     2200.00
03097            -248.00     2400.00
03098             -40.00     2400.00
03099              48.00     2400.00
03100             252.00     2800.00
03101             202.00     2800.00
03102            -248.00     3000.00
03103             166.00     3400.00
03104             252.00     3200.00
03105            -248.00     3800.00
03106            -180.00     3600.00
03107             252.00     3600.00
03108            -248.00     4400.00
03109             -50.00     4000.00
03110             216.00     4600.00
03111            -248.00     5000.00
03112             154.00     4600.00
03113             100.00     5200.00
03114            -220.00     5400.00
03115             124.00     4800.00
03116               0.00     5800.00
03117             -90.00     5800.00
03118              86.00     5600.00
03119              14.00     6400.00
03120             -68.00     6000.00
03121             -70.00     6200.00
03122             126.00     6400.00
03123             -12.00     6400.00
03124            -138.00     6800.00
03125             144.00     7000.00
03126             -48.00     7000.00
03127             -92.00     7200.00
03128             108.00     7400.00
03129             -54.00     7600.00
03130               0.00     7400.00
03131              28.00     7800.00
03132             -60.00     8000.00
03133               4.00     7800.00
03134              24.00     8400.00
03135               4.00     8400.00
03136             -36.00     8400.00
03137              16.00     8600.00
03138               4.00     8400.00
03139             -48.00     8800.00
03140              52.00     8600.00
03141             -14.00     9000.00
03142             -48.00     9200.00
03143              48.00     9200.00
03144             -12.00     9600.00
03145             -34.00     9400.00
03146              14.00     9400.00
03147               4.00     9600.00
03148             -10.00     9600.00
03149               0.00     9800.00
03150              -4.00    10000.00
03151             -18.00    10000.00
03152              12.00    10000.00
03153               0.00    10000.00
03154             -26.00    10200.00
03155              12.00    10200.00
03156               0.00    10400.00
03157             -20.00    10400.00
03158              12.00    10400.00
03159              -4.00    10600.00
03160             -22.00    10400.00
03161              12.00    10800.00
03162              12.00    11000.00
03163             -18.00    10800.00
03164              -2.00    10800.00
03165               4.00    10800.00
03166             -16.00    10800.00
03167               0.00    11000.00
03168               6.00    11000.00
03169             -10.00    11000.00
03170              -2.00    11000.00
03171               0.00    11200.00
03172             -10.00    11200.00
03173              -2.00    11000.00
03174               2.00    11000.00
03175              -8.00    11200.00
03176               0.00    11200.00
03177              -2.00    11200.00
03178             -16.00    11200.00
03179              -2.00    11200.00
03180               4.00    11200.00
03181              -8.00    11200.00
03182              -2.00    11200.00
03183               0.00    11200.00
03184             -10.00    11200.00
03185              -4.00    11200.00
03186              -2.00    11000.00
03187              -4.00    11000.00
03188              -4.00    11000.00
03189               0.00    11000.00
03190              -2.00    10800.00
03191              -8.00    11000.00
03192              -4.00    11000.00
03193              -4.00    10800.00
03194              -4.00    11000.00
03195               0.00    11000.00
03196              -4.00    10800.00
03197              -4.00    10800.00
03198              -4.00    10800.00
03199              -4.00    10400.00
03200              -4.00    10400.00
03201               0.00    10400.00
03202               0.00    10400.00
03203              -4.00    10400.00
03204              -2.00    10200.00
03205              -2.00    10200.00
03206              -4.00    10200.00
03207              -2.00    10000.00
03208               0.00    10000.00
03209               0.00    10000.00
03210              -4.00     9600.00
03211              -4.00     9600.00
03212              -2.00     9600.00
03213              -2.00     9400.00
03214              -2.00     9600.00
03215              -2.00     9400.00
03216               0.00     9200.00
03217              -4.00     9000.00
03218              -4.00     9200.00
03219              -2.00     8800.00
03220              -2.00     8800.00
03221               0.00     8600.00
03222               0.00     8600.00
03223               0.00     8400.00
03224              -2.00     8400.00
03225              -2.00     8000.00
03226              -2.00     8000.00
03227               0.00     7800.00
03228               0.00     7800.00
03229              -2.00     7600.00
03230              -4.00     7600.00
03231               4.00     7400.00
03232              -2.00     7200.00
03233               0.00     7000.00
03234               0.00     7000.00
03235              -4.00     7000.00
03236               0.00     6800.00
03237               4.00     6400.00
03238              -4.00     6400.00
03239              -4.00     6200.00
03240              -4.00     6200.00
03241              -2.00     6000.00
03242               4.00     5800.00
03243               0.00     5600.00
03244              -4.00     5400.00
03245              -2.00     5400.00
03246              -2.00     5200.00
03247              -2.00     5000.00
03248               2.00     4800.00
03249               0.00     4600.00
03250              -4.00     4400.00
03251               0.00     4400.00
03252              -4.00     4000.00
03253              -4.00     4000.00
03254               4.00     3600.00
03255               0.00     3600.00
03256              -4.00     3200.00
03257               0.00     3200.00
03258              -2.00     3000.00
03259              -4.00     2800.00
03260              -2.00     2800.00
03261               2.00     2600.00
03262              -2.00     2400.00
03263              -2.00     2200.00
03264               0.00     2000.00
03265              -2.00     1600.00
03266               0.00     1600.00
03267               0.00     1400.00
03268               4.00     1200.00
03269               2.00     1200.00
03270               0.00      800.00
03271              -2.00      800.00
03272              -2.00      600.00
03273               0.00      400.00
03274              -2.00        0.00
03275               2.00        0.00
03276               6.00     -200.00
03277               4.00     -200.00
03278              20.00     -600.00
03279              20.00     -800.00
03280              -4.00     -800.00
03281              -8.00    -1000.00
03282              10.00    -1200.00
03283              12.00    -1200.00
03284              12.00    -1600.00
03285              72.00    -1600.00
03286             222.00    -2000.00
03287              76.00    -2400.00
03288            -248.00    -2600.00
03289            -248.00    -2800.00
03290              40.00    -2800.00
03291              14.00    -2800.00
03292             252.00    -2800.00
03293             230.00    -3600.00
03294            -248.00    -3200.00
03295              -8.00    -3200.00
03296             252.00    -4400.00
03297            -248.00    -3400.00
03298            -210.00    -4000.00
03299             252.00    -4600.00
03300             -50.00    -4000.00
03301             -14.00    -4800.00
03302              34.00    -4800.00
03303            -138.00    -4600.00
03304              86.00    -5400.00
03305              84.00    -5200.00
03306             -70.00    -5200.00
03307             -22.00    -5600.00
03308             -10.00    -5800.00
03309              40.00    -5800.00
03310              40.00    -6200.00
03311             -26.00    -6400.00
03312             -48.00    -6600.00
03313               2.00    -6400.00
03314              78.00    -6800.00
03315             -16.00    -6800.00
03316             -60.00    -7000.00
03317              22.00    -7400.00
03318              16.00    -7200.00
03319               6.00    -7400.00
03320             -16.00    -7600.00
03321              -8.00    -7600.00
03322              32.00    -8000.00
03323             -12.00    -8000.00
03324             -16.00    -8000.00
03325              -2.00    -8200.00
03326               4.00    -8400.00
03327              24.00    -8600.00
03328               0.00    -8600.00
03329             -20.00    -8800.00
03330              -6.00    -8800.00
03331              12.00    -8800.00
03332              12.00    -9200.00
03333              -4.00    -9200.00
03334              -4.00    -9400.00
03335               0.00    -9400.00
03336               4.00    -9400.00
03337               0.00    -9600.00
03338             -12.00    -9800.00
03339               8.00    -9800.00
03340              12.00   -10000.00
03341              -6.00    -9800.00
03342              -4.00   -10000.00
03343               0.00   -10000.00
03344              -2.00   -10200.00
03345               4.00   -10200.00
03346               4.00   -10400.00
03347              -2.00   -10400.00
03348               4.00   -10400.00
03349               0.00   -10600.00
03350              -4.00   -10600.00
03351              -4.00   -10800.00
03352               6.00   -10800.00
03353               0.00   -10800.00
03354               6.00   -10800.00
03355               0.00   -10800.00
03356              -8.00   -11200.00
03357               0.00   -10800.00
03358               2.00   -10800.00
03359              -2.00   -10800.00
03360               4.00   -11000.00
03361               4.00   -11200.00
03362              -8.00   -11200.00
03363              -4.00   -11200.00
03364               0.00   -11200.00
03365              -2.00   -11200.00
03366               4.00   -11200.00
03367               4.00   -11400.00
03368              -2.00   -11400.00
03369              -4.00   -11400.00
03370              -4.00   -11400.00
03371              -4.00   -11400.00
03372               0.00   -11200.00
03373               4.00   -11200.00
03374              -4.00   -11400.00
03375              -4.00   -11200.00
03376              -4.00   -11200.00
03377              -6.00   -11200.00
03378              -2.00   -11200.00
03379               4.00   -11000.00
03380              -4.00   -11200.00
03381              -2.00   -11000.00
03382              -4.00   -11200.00
03383              -4.00   -11200.00
03384              -4.00   -11000.00
03385              -4.00   -11000.00
03386              -2.00   -10800.00
03387               0.00   -11000.00
03388              -4.00   -10800.00
03389              -8.00   -10800.00
03390              -4.00   -10800.00
03391              -4.00   -10800.00
03392              -4.00   -10600.00
03393               0.00   -10600.00
03394              -2.00   -10400.00
03395              -8.00   -10600.00
03396              -4.00   -10400.00
03397              -4.00   -10400.00
03398              -2.00   -10400.00
03399               0.00   -10200.00
03400              -4.00   -10000.00
03401              -4.00   -10000.00
03402              -4.00    -9800.00
03403              -6.00    -9800.00
03404              -4.00    -9600.00
03405              -8.00    -9600.00
03406               0.00    -9400.00
03407               0.00    -9400.00
03408              -4.00    -9200.00
03409              -2.00    -9200.00
03410              -8.00    -9200.00
03411              -4.00    -9000.00
03412              -4.00    -8800.00
03413              -2.00    -8800.00
03414               0.00    -8800.00
03415              -4.00    -8400.00
03416              -4.00    -8400.00
03417              -8.00    -8200.00
03418              -2.00    -8000.00
03419               0.00    -8000.00
03420              -4.00    -8000.00
03421              -4.00    -7600.00
03422              -4.00    -7400.00
03423              -4.00    -7400.00
03424              -6.00    -7400.00
03425              -4.00    -7200.00
03426              -4.00    -7000.00
03427              -2.00    -6800.00
03428              -2.00    -6600.00
03429              -8.00    -6600.00
03430              -4.00    -6400.00
03431              -4.00    -6400.00
03432              -8.00    -6000.00
03433              -2.00    -5800.00
03434              -4.00    -5600.00
03435              -8.00    -5600.00
03436              -4.00    -5400.00
03437              -8.00    -5200.00
03438              -4.00    -5000.00
03439              -4.00    -4800.00
03440              -4.00    -4800.00
03441              -4.00    -4600.00
03442              -6.00    -4400.00
03443              -6.00    -4400.00
03444              -8.00    -4200.00
03445              -4.00    -4000.00
03446              -4.00    -3800.00
03447              -4.00    -3600.00
03448              -6.00    -3400.00
03449              -4.00    -3400.00
03450             -10.00    -3200.00
03451              -8.00    -2800.00
03452              -4.00    -2800.00
03453              -4.00    -2600.00
03454              -4.00    -2400.00
03455              -8.00    -2200.00
03456              -8.00    -2000.00
03457              -8.00    -1800.00
03458              -8.00    -1600.00
03459              -6.00    -1600.00
03460              -2.00    -1200.00
03461              -4.00    -1200.00
03462              -8.00    -1000.00
03463              -8.00     -800.00
03464              -8.00     -400.00
03465              -8.00     -400.00
03466              -4.00     -200.00
03467              -2.00     -200.00
03468              -2.00        0.00
03469              10.00      200.00
03470              16.00      600.00
03471              -4.00      800.00
03472             -16.00      800.00
03473              -2.00     1200.00
03474               6.00     1200.00
03475              12.00     1400.00
03476              94.00     1600.00
03477             252.00     2000.00
03478             -58.00     2200.00
03479            -248.00     2400.00
03480            -184.00     2400.00
03481              16.00     2400.00
03482             244.00     2800.00
03483             252.00     3000.00
03484            -248.00     2800.00
03485            -248.00     3200.00
03486             252.00     3200.00
03487              86.00     3800.00
03488            -248.00     3800.00
03489             252.00     3600.00
03490             140.00     4200.00
03491            -248.00     4200.00
03492             252.00     4000.00
03493            -106.00     5200.00
03494            -120.00     4600.00
03495             252.00     4600.00
03496            -176.00     5400.00
03497             -36.00     5000.00
03498             126.00     5200.00
03499            -118.00     6000.00
03500              28.00     5400.00
03501              64.00     5800.00
03502             -32.00     6400.00
03503             -92.00     6000.00
03504              32.00     6600.00
03505             112.00     6600.00
03506            -156.00     6400.00
03507              30.00     7000.00
03508             102.00     6800.00
03509            -154.00     7400.00
03510              54.00     7000.00
03511              32.00     7600.00
03512             -64.00     7600.00
03513              52.00     7400.00
03514             -36.00     8200.00
03515             -34.00     7800.00
03516              22.00     8000.00
03517              18.00     8400.00
03518             -28.00     8000.00
03519             -20.00     8600.00
03520              32.00     8600.00
03521             -48.00     8600.00
03522               6.00     8800.00
03523              38.00     8800.00
03524             -64.00     9000.00
03525              14.00     9000.00
03526              30.00     9400.00
03527             -42.00     9400.00
03528              -4.00     9400.00
03529              14.00     9800.00
03530             -10.00     9600.00
03531              -8.00     9600.00
03532               4.00     9800.00
03533             -16.00    10000.00
03534              -8.00    10000.00
03535              12.00    10000.00
03536             -20.00    10200.00
03537              -8.00    10200.00
03538              14.00    10400.00
03539             -16.00    10400.00
03540              -4.00    10400.00
03541               6.00    10400.00
03542             -18.00    10600.00
03543              -8.00    10400.00
03544              16.00    10800.00
03545              -4.00    10800.00
03546             -16.00    10800.00
03547               0.00    10800.00
03548              -4.00    11000.00
03549              -6.00    11000.00
03550               4.00    11000.00
03551               0.00    11000.00
03552              -6.00    11000.00
03553               0.00    11200.00
03554              -8.00    11200.00
03555              -4.00    11200.00
03556               4.00    11200.00
03557              -4.00    11200.00
03558              -2.00    11200.00
03559               6.00    11200.00
03560              -8.00    11200.00
03561             -10.00    11200.00
03562               6.00    11200.00
03563              -8.00    11200.00
03564              -8.00    11200.00
03565               4.00    11200.00
03566              -4.00    11200.00
03567              -4.00    11200.00
03568               0.00    11200.00
03569              -4.00    11000.00
03570             -10.00    11000.00
03571               0.00    11000.00
03572               4.00    11200.00
03573              -8.00    11000.00
03574              -4.00    11000.00
03575              -4.00    10800.00
03576              -4.00    10800.00
03577               0.00    10800.00
03578               4.00    10800.00
03579              -4.00    10800.00
03580              -4.00    10600.00
03581              -4.00    10400.00
03582              -4.00    10600.00
03583               0.00    10400.00
03584               0.00    10200.00
03585              -4.00    10200.00
03586              -2.00    10200.00
03587              -2.00    10200.00
03588              -4.00    10200.00
03589              -4.00    10000.00
03590              -2.00    10000.00
03591              -2.00    10000.00
03592              -2.00     9800.00
03593               0.00     9600.00
03594              -4.00     9600.00
03595              -4.00     9600.00
03596               0.00     9400.00
03597               0.00     9400.00
03598               0.00     9200.00
03599               0.00     9200.00
03600              -4.00     9000.00
03601              -4.00     9000.00
03602              -2.00     8800.00
03603              -2.00     8800.00
03604               4.00     8600.00
03605               2.00     8400.00
03606              -2.00     8400.00
03607              -2.00     8400.00
03608              -2.00     8200.00
03609               0.00     8000.00
03610              -2.00     7800.00
03611               2.00     7800.00
03612               0.00     7600.00
03613              -4.00     7600.00
03614              -2.00     7200.00
03615              -2.00     7200.00
03616               0.00     7000.00
03617               0.00     6800.00
03618              -4.00     6800.00
03619               4.00     6600.00
03620               4.00     6400.00
03621              -2.00     6400.00
03622              -2.00     6200.00
03623              -2.00     6000.00
03624               2.00     5800.00
03625               0.00     5600.00
03626              -2.00     5600.00
03627               4.00     5400.00
03628              -2.00     5200.00
03629              -2.00     5000.00
03630               0.00     4800.00
03631              -2.00     4600.00
03632               0.00     4600.00
03633              -2.00     4400.00
03634              -2.00     4200.00
03635              -2.00     4000.00
03636               0.00     3800.00
03637               0.00     3600.00
03638              -2.00     3600.00
03639               2.00     3200.00
03640              -2.00     3200.00
03641              -4.00     3000.00
03642               4.00     2800.00
03643              -2.00     2400.00
03644              -2.00     2400.00
03645               4.00     2200.00
03646              -4.00     2000.00
03647              -4.00     1800.00
03648               4.00     1600.00
03649              -4.00     1600.00
03650              -4.00     1200.00
03651               4.00     1200.00
03652              -2.00     1000.00
03653              -4.00      800.00
03654               4.00      600.00
03655              -4.00      600.00
03656              -2.00      200.00
03657               4.00        0.00
03658               2.00        0.00
03659               4.00     -200.00
03660              14.00     -400.00
03661              22.00     -800.00
03662               6.00     -800.00
03663              -8.00    -1000.00
03664              -2.00    -1200.00
03665               8.00    -1200.00
03666               8.00    -1400.00
03667              30.00    -1600.00
03668             156.00    -1800.00
03669             206.00    -2400.00
03670            -160.00    -2600.00
03671            -248.00    -2600.00
03672             -72.00    -2800.00
03673              42.00    -2800.00
03674             106.00    -2600.00
03675             252.00    -3200.00
03676            -220.00    -3600.00
03677            -248.00    -3000.00
03678             252.00    -4000.00
03679             180.00    -4000.00
03680            -248.00    -3400.00
03681             140.00    -4600.00
03682             134.00    -4200.00
03683            -108.00    -4400.00
03684              80.00    -5000.00
03685             -98.00    -4600.00
03686             -40.00    -5000.00
03687             140.00    -5400.00
03688             -20.00    -5200.00
03689             -48.00    -5600.00
03690             -10.00    -5800.00
03691              12.00    -5800.00
03692              56.00    -6000.00
03693               4.00    -6000.00
03694             -42.00    -6400.00
03695             -32.00    -6400.00
03696              54.00    -6600.00
03697              46.00    -7000.00
03698             -68.00    -6800.00
03699             -10.00    -7200.00
03700              30.00    -7400.00
03701               6.00    -7200.00
03702              -2.00    -7400.00
03703             -20.00    -7600.00
03704              22.00    -7800.00
03705              12.00    -8200.00
03706             -24.00    -8000.00
03707              -2.00    -8200.00
03708              -2.00    -8400.00
03709              16.00    -8400.00
03710              16.00    -8600.00
03711             -18.00    -8800.00
03712             -18.00    -8800.00
03713               4.00    -8800.00
03714              16.00    -9200.00
03715               2.00    -9200.00
03716              -4.00    -9200.00
03717               0.00    -9600.00
03718               2.00    -9600.00
03719               6.00    -9600.00
03720             -10.00    -9600.00
03721              -2.00    -9800.00
03722              14.00   -10000.00
03723               0.00   -10000.00
03724              -8.00   -10000.00
03725              -2.00   -10000.00
03726              -2.00   -10000.00
03727               0.00   -10200.00
03728               4.00   -10400.00
03729               4.00   -10400.00
03730               0.00   -10400.00
03731               4.00   -10600.00
03732              -4.00   -10600.00
03733              -4.00   -10600.00
03734               4.00   -10600.00
03735               4.00   -10800.00
03736               6.00   -10800.00
03737               6.00   -10800.00
03738              -6.00   -10800.00
03739              -4.00   -11000.00
03740               4.00   -10800.00
03741               0.00   -11200.00
03742               0.00   -11000.00
03743               6.00   -11200.00
03744              -2.00   -11200.00
03745              -4.00   -11200.00
03746              -2.00   -11200.00
03747               0.00   -11200.00
03748               0.00   -11400.00
03749               4.00   -11200.00
03750               4.00   -11200.00
03751              -4.00   -11400.00
03752              -4.00   -11200.00
03753              -2.00   -11200.00
03754               0.00   -11400.00
03755               4.00   -11200.00
03756               4.00   -11200.00
03757              -2.00   -11400.00
03758              -2.00   -11400.00
03759              -4.00   -11400.00
03760              -6.00   -11200.00
03761               4.00   -11200.00
03762               4.00   -11200.00
03763              -2.00   -11200.00
03764              -2.00   -11200.00
03765              -4.00   -11200.00
03766              -8.00   -11200.00
03767              -4.00   -11000.00
03768               0.00   -11000.00
03769              -2.00   -11000.00
03770              -2.00   -10800.00
03771              -4.00   -10800.00
03772              -4.00   -10800.00
03773              -4.00   -10800.00
03774              -2.00   -10600.00
03775              -4.00   -10600.00
03776               0.00   -10600.00
03777              -4.00   -10600.00
03778              -4.00   -10400.00
03779              -6.00   -10400.00
03780              -4.00   -10200.00
03781              -4.00   -10000.00
03782              -2.00   -10000.00
03783              -2.00   -10000.00
03784              -4.00    -9800.00
03785              -8.00    -9800.00
03786              -4.00    -9800.00
03787              -4.00    -9800.00
03788              -2.00    -9600.00
03789               0.00    -9400.00
03790              -2.00    -9200.00
03791              -6.00    -9200.00
03792              -4.00    -9200.00
03793              -4.00    -9000.00
03794              -4.00    -9000.00
03795              -2.00    -8800.00
03796               0.00    -8800.00
03797              -4.00    -8400.00
03798              -4.00    -8600.00
03799              -4.00    -8200.00
03800              -4.00    -8200.00
03801              -2.00    -8000.00
03802               0.00    -7800.00
03803              -4.00    -8000.00
03804              -4.00    -7600.00
03805              -4.00    -7600.00
03806              -6.00    -7400.00
03807              -2.00    -7200.00
03808              -4.00    -7200.00
03809              -2.00    -7000.00
03810              -4.00    -6800.00
03811              -4.00    -6800.00
03812              -8.00    -6600.00
03813              -4.00    -6400.00
03814              -4.00    -6000.00
03815              -4.00    -6000.00
03816              -2.00    -5800.00
03817              -4.00    -5600.00
03818              -8.00    -5400.00
03819              -4.00    -5400.00
03820              -4.00    -5200.00
03821              -4.00    -5000.00
03822              -4.00    -5000.00
03823              -2.00    -4800.00
03824              -6.00    -4600.00
03825              -8.00    -4400.00
03826              -8.00    -4200.00
03827              -4.00    -4200.00
03828              -4.00    -4000.00
03829              -4.00    -3600.00
03830              -4.00    -3600.00
03831              -8.00    -3400.00
03832              -8.00    -3200.00
03833              -8.00    -3200.00
03834              -8.00    -2800.00
03835              -4.00    -2800.00
03836              -4.00    -2600.00
03837              -4.00    -2400.00
03838              -8.00    -2000.00
03839              -8.00    -2000.00
03840              -6.00    -1800.00
03841              -4.00    -1600.00
03842              -4.00    -1400.00
03843              -4.00    -1200.00
03844              -6.00    -1000.00
03845              -8.00     -800.00
03846              -8.00     -800.00
03847              -4.00     -400.00
03848              -4.00     -200.00
03849              -4.00     -200.00
03850              -4.00        0.00
03851               4.00      400.00
03852              18.00      400.00
03853               8.00      600.00
03854             -12.00      600.00
03855             -10.00     1000.00
03856               4.00     1200.00
03857               6.00     1200.00
03858              32.00     1600.00
03859             206.00     1600.00
03860             156.00     2200.00
03861            -248.00     2200.00
03862            -248.00     2400.00
03863             -20.00     2400.00
03864              70.00     2400.00
03865             252.00     2800.00
03866             104.00     2800.00
03867            -248.00     3000.00
03868             252.00     3200.00
03869             252.00     3400.00
03870            -248.00     4000.00
03871             -66.00     3600.00
03872             252.00     4000.00
03873            -248.00     4400.00
03874              20.00     4000.00
03875             176.00     4600.00
03876            -248.00     5000.00
03877             194.00     4600.00
03878              54.00     5200.00
03879            -208.00     5400.00
03880             140.00     5000.00
03881             -26.00     5800.00
03882             -74.00     5800.00
03883              92.00     5600.00
03884               6.00     6400.00
03885             -72.00     6000.00
03886             -58.00     6200.00
03887             134.00     6800.00
03888             -40.00     6400.00
03889            -116.00     6800.00
03890             156.00     7000.00
03891             -74.00     7200.00
03892             -70.00     7200.00
03893             102.00     7400.00
03894             -64.00     7800.00
03895              12.00     7400.00
03896              20.00     8000.00
03897             -64.00     7800.00
03898               8.00     7600.00
03899              24.00     8400.00
03900              -2.00     8200.00
03901             -36.00     8400.00
03902              22.00     8800.00
03903              -8.00     8600.00
03904             -42.00     8800.00
03905              60.00     8800.00
03906             -26.00     9000.00
03907             -40.00     9000.00
03908              46.00     9200.00
03909             -20.00     9400.00
03910             -34.00     9200.00
03911              14.00     9400.00
03912               0.00     9600.00
03913             -16.00     9600.00
03914               4.00    10000.00
03915              -4.00     9800.00
03916             -20.00    10000.00
03917              16.00    10200.00
03918              -4.00    10200.00
03919             -24.00    10200.00
03920              20.00    10200.00
03921              -4.00    10400.00
03922             -20.00    10400.00
03923              12.00    10400.00
03924             -10.00    10400.00
03925             -20.00    10600.00
03926              14.00    10800.00
03927               6.00    10800.00
03928             -20.00    10800.00
03929               0.00    11000.00
03930               4.00    10800.00
03931             -16.00    10800.00
03932               6.00    11000.00
03933               6.00    11000.00
03934             -10.00    11000.00
03935               0.00    11000.00
03936               0.00    11000.00
03937             -14.00    11000.00
03938               4.00    11200.00
03939               4.00    11200.00
03940             -10.00    11000.00
03941               8.00    11200.00
03942              -4.00    11200.00
03943             -12.00    11200.00
03944               4.00    11200.00
03945              -2.00    11200.00
03946              -4.00    11200.00
03947               0.00    11200.00
03948               0.00    11200.00
03949              -6.00    11000.00
03950              -2.00    11200.00
03951               2.00    11000.00
03952              -4.00    11000.00
03953               0.00    11000.00
03954               2.00    11000.00
03955              -4.00    11000.00
03956              -4.00    11000.00
03957              -4.00    11000.00
03958              -6.00    11000.00
03959              -2.00    10800.00
03960               4.00    10800.00
03961              -4.00    10600.00
03962              -4.00    10600.00
03963              -4.00    10400.00
03964              -6.00    10400.00
03965              -2.00    10400.00
03966               0.00    10400.00
03967              -4.00    10400.00
03968              -4.00    10200.00
03969              -2.00    10200.00
03970              -6.00    10200.00
03971              -4.00    10000.00
03972               0.00    10000.00
03973              -4.00     9800.00
03974              -2.00    10000.00
03975              -2.00    10000.00
03976              -4.00     9600.00
03977              -4.00     9400.00
03978              -2.00     9600.00
03979               0.00     9400.00
03980              -2.00     9400.00
03981              -2.00     9200.00
03982              -2.00     9000.00
03983              -4.00     9200.00
03984              -2.00     8800.00
03985              -2.00     8800.00
03986               0.00     8600.00
03987               2.00     8600.00
03988              -2.00     8400.00
03989              -4.00     8400.00
03990              -4.00     8000.00
03991              -2.00     8200.00
03992              -2.00     8000.00
03993               0.00     7800.00
03994               0.00     7800.00
03995              -2.00     7600.00
03996              -2.00     7400.00
03997              -2.00     7200.00
03998               0.00     7000.00
03999               0.00     6800.00
04000              -2.00     6800.00
04001               0.00     6800.00
04002               0.00     6600.00
04003              -4.00     6400.00
04004              -2.00     6200.00
04005              -2.00     6000.00
04006               0.00     6000.00
04007               2.00     5600.00
04008              -2.00     5600.00
04009               0.00     5400.00
04010              -2.00     5200.00
04011               0.00     5200.00
04012              -2.00     4800.00
04013               0.00     4800.00
04014               0.00     4600.00
04015              -2.00     4400.00
04016               0.00     4400.00
04017              -2.00     4000.00
04018              -2.00     3800.00
04019               0.00     3600.00
04020               0.00     3600.00
04021               0.00     3400.00
04022               0.00     3200.00
04023              -4.00     3000.00
04024              -2.00     2800.00
04025              -2.00     2600.00
04026               0.00     2400.00
04027               0.00     2400.00
04028              -2.00     2200.00
04029               0.00     2000.00
04030              -2.00     1800.00
04031              -2.00     1600.00
04032               0.00     1400.00
04033               0.00     1200.00
04034              -2.00     1200.00
04035              -2.00     1000.00
04036              -2.00      600.00
04037              -2.00      600.00
04038               0.00      400.00
04039              -2.00      200.00
04040               4.00        0.00
04041               4.00     -200.00
04042               4.00     -400.00
04043              20.00     -600.00
04044              18.00     -800.00
04045              -8.00    -1000.00
04046              -6.00    -1000.00
04047              12.00    -1200.00
04048               8.00    -1200.00
04049              12.00    -1400.00
04050              82.00    -1600.00
04051             228.00    -2200.00
04052              40.00    -2600.00
04053            -248.00    -2600.00
04054            -236.00    -2600.00
04055              46.00    -3000.00
04056              16.00    -2600.00
04057             252.00    -2800.00
04058             172.00    -3600.00
04059            -248.00    -3200.00
04060              84.00    -3600.00
04061             252.00    -4200.00
04062            -248.00    -3400.00
04063            -152.00    -4200.00
04064             252.00    -4800.00
04065             -76.00    -4000.00
04066              10.00    -4800.00
04067              14.00    -5000.00
04068            -132.00    -4400.00
04069             102.00    -5200.00
04070              70.00    -5200.00
04071             -66.00    -5200.00
04072             -16.00    -5600.00
04073             -10.00    -5800.00
04074              46.00    -6000.00
04075              36.00    -6200.00
04076             -26.00    -6400.00
04077             -44.00    -6400.00
04078               8.00    -6400.00
04079              78.00    -7000.00
04080             -26.00    -6800.00
04081             -48.00    -6800.00
04082              30.00    -7200.00
04083              14.00    -7200.00
04084               6.00    -7400.00
04085             -16.00    -7600.00
04086               0.00    -7600.00
04087              34.00    -8000.00
04088             -16.00    -8000.00
04089             -12.00    -8000.00
04090               0.00    -8200.00
04091               6.00    -8400.00
04092              24.00    -8400.00
04093              -2.00    -8800.00
04094             -20.00    -9000.00
04095              -4.00    -9000.00
04096              12.00    -8800.00
04097              12.00    -9200.00
04098              -8.00    -9200.00
04099              -4.00    -9400.00
04100               4.00    -9600.00
04101               6.00    -9600.00
04102              -2.00    -9800.00
04103             -12.00    -9600.00
04104              10.00    -9800.00
04105              12.00   -10000.00
04106              -8.00   -10000.00
04107              -2.00   -10000.00
04108               0.00   -10000.00
04109              -4.00   -10400.00
04110               4.00   -10200.00
04111               6.00   -10400.00
04112              -2.00   -10600.00
04113               0.00   -10600.00
04114               0.00   -10600.00
04115              -8.00   -10800.00
04116              -2.00   -10800.00
04117               4.00   -10800.00
04118               4.00   -10800.00
04119               8.00   -11200.00
04120              -2.00   -10800.00
04121              -8.00   -11000.00
04122              -2.00   -11000.00
04123               4.00   -11000.00
04124              -4.00   -11200.00
04125               0.00   -11200.00
04126               6.00   -11200.00
04127              -4.00   -11200.00
04128              -4.00   -11400.00
04129               4.00   -11200.00
04130              -4.00   -11400.00
04131               4.00   -11400.00
04132              10.00   -11200.00
04133               0.00   -11400.00
04134              -4.00   -11400.00
04135              -2.00   -11200.00
04136              -4.00   -11400.00
04137               0.00   -11400.00
04138               6.00   -11200.00
04139              -2.00   -11400.00
04140              -4.00   -11200.00
04141              -2.00   -11400.00
04142              -4.00   -11200.00
04143               0.00   -11200.00
04144               6.00   -11200.00
04145               0.00   -11200.00
04146              -4.00   -11200.00
04147               0.00   -11200.00
04148              -4.00   -11200.00
04149              -4.00   -10800.00
04150               4.00   -10800.00
04151               4.00   -11000.00
04152               0.00   -10800.00
04153               0.00   -10800.00
04154              -4.00   -10800.00
04155              -4.00   -10800.00
04156              -2.00   -10600.00
04157              -2.00   -10600.00
04158              -2.00   -10600.00
04159               0.00   -10600.00
04160              -4.00   -10400.00
04161              -4.00   -10400.00
04162              -4.00   -10400.00
04163              -4.00   -10200.00
04164              -2.00   -10200.00
04165               0.00   -10000.00
04166              -2.00   -10000.00
04167              -4.00    -9800.00
04168              -8.00    -9800.00
04169              -4.00    -9600.00
04170              -4.00    -9600.00
04171              -2.00    -9600.00
04172               0.00    -9400.00
04173              -4.00    -9200.00
04174              -8.00    -9200.00
04175              -6.00    -9200.00
04176              -4.00    -9000.00
04177              -2.00    -8800.00
04178              -2.00    -8800.00
04179              -2.00    -8600.00
04180              -4.00    -8400.00
04181              -4.00    -8400.00
04182              -4.00    -8200.00
04183              -4.00    -8000.00
04184              -4.00    -8000.00
04185              -4.00    -7800.00
04186              -4.00    -7800.00
04187              -8.00    -7600.00
04188              -8.00    -7400.00
04189              -4.00    -7400.00
04190              -4.00    -7200.00
04191              -2.00    -7000.00
04192              -2.00    -6800.00
04193              -4.00    -6600.00
04194              -8.00    -6600.00
04195              -4.00    -6400.00
04196              -4.00    -6400.00
04197              -4.00    -6000.00
04198              -4.00    -5800.00
04199              -2.00    -5600.00
04200              -4.00    -5600.00
04201              -8.00    -5400.00
04202              -6.00    -5200.00
04203              -6.00    -5000.00
04204              -4.00    -5000.00
04205              -4.00    -4800.00
04206              -2.00    -4600.00
04207              -8.00    -4400.00
04208              -4.00    -4400.00
04209              -6.00    -4200.00
04210              -4.00    -4000.00
04211              -2.00    -3800.00
04212              -4.00    -3600.00
04213              -4.00    -3400.00
04214              -4.00    -3200.00
04215              -4.00    -3200.00
04216              -8.00    -2800.00
04217              -4.00    -2800.00
04218              -4.00    -2600.00
04219              -8.00    -2400.00
04220              -4.00    -2400.00
04221              -8.00    -1800.00
04222             -10.00    -1800.00
04223              -6.00    -1600.00
04224              -4.00    -1400.00
04225              -4.00    -1200.00
04226              -4.00    -1000.00
04227              -8.00    -1000.00
04228             -10.00     -600.00
04229              -8.00     -600.00
04230              -4.00     -400.00
04231              -4.00        0.00
04232              -2.00        0.00
04233              -2.00        0.00
04234              12.00      400.00
04235              16.00      600.00
04236              -4.00     1000.00
04237             -16.00      800.00
04238              -2.00     1000.00
04239               6.00     1200.00
04240               8.00     1200.00
04241             110.00     1600.00
04242             252.00     2000.00
04243            -100.00     2200.00
04244            -248.00     2200.00
04245            -152.00     2200.00
04246              14.00     2400.00
04247             252.00     2800.00
04248             252.00     3000.00
04249            -248.00     2800.00
04250            -248.00     3400.00
04251             252.00     3200.00
04252             -68.00     3800.00
04253            -248.00     3800.00
04254             252.00     3600.00
04255              46.00     4200.00
04256            -248.00     4200.00
04257             252.00     4200.00
04258            -162.00     5000.00
04259             -66.00     4600.00
04260             252.00     4800.00
04261            -200.00     5400.00
04262              -2.00     5000.00
04263             110.00     5400.00
04264            -122.00     6000.00
04265              48.00     5400.00
04266              60.00     6000.00
04267             -36.00     6200.00
04268             -92.00     6000.00
04269              58.00     6600.00
04270              98.00     6600.00
04271            -162.00     6600.00
04272              62.00     7000.00
04273              78.00     7000.00
04274            -152.00     7200.00
04275              76.00     7000.00
04276              18.00     7600.00
04277             -52.00     7800.00
04278              54.00     7600.00
04279             -44.00     8000.00
04280             -24.00     7800.00
04281              24.00     8000.00
04282              16.00     8400.00
04283             -28.00     8000.00
04284             -16.00     8600.00
04285              28.00     8600.00
04286             -48.00     8600.00
04287              16.00     8800.00
04288              32.00     8800.00
04289             -66.00     9200.00
04290              24.00     9000.00
04291              24.00     9200.00
04292             -44.00     9200.00
04293              -2.00     9400.00
04294              14.00     9600.00
04295             -10.00     9600.00
04296              -8.00     9800.00
04297               4.00    10000.00
04298             -18.00     9800.00
04299              -4.00    10000.00
04300              14.00    10000.00
04301             -26.00    10200.00
04302              -2.00    10200.00
04303              16.00    10200.00
04304             -20.00    10400.00
04305              -2.00    10400.00
04306               6.00    10400.00
04307             -24.00    10400.00
04308              -4.00    10600.00
04309              18.00    10800.00
04310             -10.00    10800.00
04311             -12.00    10600.00
04312               6.00    10800.00
04313             -10.00    11000.00
04314              -8.00    11000.00
04315               6.00    11000.00
04316              -6.00    11000.00
04317              -4.00    11000.00
04318               4.00    11000.00
04319              -8.00    11200.00
04320              -4.00    11200.00
04321               4.00    11200.00
04322              -4.00    11200.00
04323              -2.00    11200.00
04324               4.00    11200.00
04325             -10.00    11200.00
04326              -8.00    11200.00
04327               4.00    11200.00
04328              -4.00    11200.00
04329              -2.00    11200.00
04330               4.00    11200.00
04331              -4.00    11200.00
04332              -8.00    11200.00
04333               0.00    11200.00
04334              -2.00    11200.00
04335              -4.00    11000.00
04336               4.00    11000.00
04337              -2.00    11000.00
04338              -4.00    11000.00
04339              -2.00    11000.00
04340              -4.00    10800.00
04341              -2.00    11000.00
04342               4.00    10800.00
04343               0.00    10800.00
04344              -4.00    10800.00
04345              -2.00    10800.00
04346              -4.00    10800.00
04347              -4.00    10400.00
04348               0.00    10600.00
04349               0.00    10400.00
04350              -4.00    10200.00
04351               0.00    10400.00
04352              -2.00    10200.00
04353              -4.00    10000.00
04354              -2.00    10000.00
04355              -2.00    10000.00
04356              -2.00    10000.00
04357               0.00     9800.00
04358              -4.00     9800.00
04359              -4.00     9600.00
04360              -4.00     9400.00
04361              -2.00     9400.00
04362              -4.00     9200.00
04363               0.00     9200.00
04364              -4.00     9200.00
04365              -4.00     9000.00
04366              -4.00     9000.00
04367              -4.00     8800.00
04368              -2.00     8800.00
04369              -2.00     8600.00
04370               0.00     8400.00
04371              -2.00     8400.00
04372              -4.00     8400.00
04373              -4.00     8000.00
04374              -2.00     7800.00
04375               0.00     7800.00
04376               0.00     7600.00
04377              -4.00     7600.00
04378               0.00     7600.00
04379              -4.00     7200.00
04380               0.00     7400.00
04381               0.00     7000.00
04382              -2.00     7000.00
04383               0.00     6800.00
04384               2.00     6600.00
04385              -4.00     6400.00
04386              -2.00     6200.00
04387              -2.00     6000.00
04388               4.00     6000.00
04389               0.00     6000.00
04390               0.00     5600.00
04391               0.00     5600.00
04392              -4.00     5400.00
04393              -2.00     5200.00
04394               0.00     4800.00
04395               0.00     4800.00
04396               0.00     4600.00
04397               0.00     4600.00
04398               0.00     4400.00
04399              -4.00     4200.00
04400               2.00     4000.00
04401               0.00     3800.00
04402               0.00     3600.00
04403               4.00     3400.00
04404              -2.00     3400.00
04405               0.00     3200.00
04406               0.00     3000.00
04407              -2.00     2800.00
04408               4.00     2600.00
04409               0.00     2400.00
04410               0.00     2200.00
04411               0.00     2200.00
04412              -2.00     2000.00
04413              -2.00     1600.00
04414               0.00     1600.00
04415               0.00     1400.00
04416               0.00     1200.00
04417               0.00     1000.00
04418               0.00     1000.00
04419              -4.00      600.00
04420              -2.00      400.00
04421               0.00      200.00
04422               0.00        0.00
04423               6.00     -200.00
04424               6.00     -400.00
04425              12.00     -400.00
04426              24.00     -600.00
04427               4.00    -1000.00
04428             -10.00    -1000.00
04429               4.00    -1200.00
04430              12.00    -1200.00
04431               8.00    -1600.00
04432              36.00    -1400.00
04433             166.00    -1800.00
04434             188.00    -2400.00
04435            -198.00    -2600.00
04436            -248.00    -2600.00
04437             -42.00    -2800.00
04438              36.00    -2800.00
04439             136.00    -2600.00
04440             252.00    -3400.00
04441            -248.00    -3400.00
04442            -248.00    -3000.00
04443             252.00    -4200.00
04444              94.00    -3800.00
04445            -248.00    -3600.00
04446             178.00    -4800.00
04447             100.00    -4200.00
04448             -98.00    -4200.00
04449              84.00    -5000.00
04450            -114.00    -4600.00
04451             -14.00    -5000.00
04452             140.00    -5400.00
04453             -34.00    -5200.00
04454             -40.00    -5600.00
04455             -12.00    -5600.00
04456              16.00    -5800.00
04457              56.00    -6000.00
04458              -4.00    -6000.00
04459             -42.00    -6400.00
04460             -26.00    -6400.00
04461              62.00    -6600.00
04462              38.00    -7000.00
04463             -68.00    -6800.00
04464               0.00    -7200.00
04465              30.00    -7400.00
04466               6.00    -7200.00
04467              -2.00    -7600.00
04468             -18.00    -7600.00
04469              30.00    -8000.00
04470               8.00    -8000.00
04471             -20.00    -8000.00
04472               0.00    -8200.00
04473              -2.00    -8200.00
04474              22.00    -8400.00
04475              16.00    -8400.00
04476             -18.00    -8800.00
04477             -14.00    -8800.00
04478               6.00    -9000.00
04479              14.00    -9000.00
04480               4.00    -9200.00
04481              -4.00    -9200.00
04482              -2.00    -9200.00
04483               4.00    -9400.00
04484               4.00    -9600.00
04485             -10.00    -9600.00
04486               0.00    -9800.00
04487              16.00    -9800.00
04488              -2.00   -10000.00
04489              -8.00   -10000.00
04490               0.00   -10000.00
04491              -2.00   -10200.00
04492               0.00   -10400.00
04493               6.00   -10400.00
04494               0.00   -10400.00
04495              -2.00   -10600.00
04496               4.00   -10600.00
04497              -4.00   -10800.00
04498              -4.00   -10600.00
04499               4.00   -10800.00
04500               0.00   -10800.00
04501               6.00   -10800.00
04502               4.00   -10800.00
04503             -10.00   -11000.00
04504              -4.00   -11000.00
04505               4.00   -11000.00
04506              -2.00   -11200.00
04507              -2.00   -11200.00
04508               8.00   -11200.00
04509              -2.00   -11200.00
04510              -8.00   -11200.00
04511               2.00   -11200.00
04512              -2.00   -11400.00
04513               0.00   -11400.00
04514               6.00   -11200.00
04515               0.00   -11200.00
04516              -4.00   -11400.00
04517              -4.00   -11200.00
04518               0.00   -11400.00
04519               0.00   -11200.00
04520               4.00   -11200.00
04521               4.00   -11400.00
04522              -2.00   -11200.00
04523              -2.00   -11200.00
04524              -2.00   -11400.00
04525              -4.00   -11200.00
04526               4.00   -11200.00
04527               4.00   -11000.00
04528              -2.00   -11200.00
04529              -2.00   -11200.00
04530              -4.00   -11200.00
04531              -4.00   -11000.00
04532              -2.00   -11000.00
04533               4.00   -10800.00
04534              -2.00   -10800.00
04535              -2.00   -10800.00
04536              -4.00   -10800.00
04537              -4.00   -10800.00
04538              -4.00   -10800.00
04539              -2.00   -10600.00
04540               2.00   -10600.00
04541               0.00   -10400.00
04542              -4.00   -10600.00
04543              -6.00   -10400.00
04544              -6.00   -10400.00
04545              -4.00   -10400.00
04546              -4.00   -10200.00
04547              -2.00   -10000.00
04548              -2.00   -10000.00
04549              -8.00    -9800.00
04550              -6.00    -9800.00
04551              -4.00    -9600.00
04552              -4.00    -9600.00
04553              -2.00    -9600.00
04554               0.00    -9600.00
04555              -4.00    -9400.00
04556              -6.00    -9200.00
04557              -8.00    -9000.00
04558              -4.00    -9000.00
04559              -4.00    -9000.00
04560              -2.00    -8800.00
04561              -2.00    -8600.00
04562              -4.00    -8400.00
04563              -8.00    -8400.00
04564              -8.00    -8200.00
04565              -4.00    -8200.00
04566              -4.00    -8000.00
04567              -4.00    -7800.00
04568              -4.00    -7800.00
04569              -4.00    -7600.00
04570              -8.00    -7600.00
04571              -8.00    -7400.00
04572              -4.00    -7200.00
04573              -4.00    -7200.00
04574              -2.00    -7000.00
04575              -4.00    -6800.00
04576              -4.00    -6600.00
04577              -8.00    -6600.00
04578              -4.00    -6400.00
04579              -4.00    -6200.00
04580              -4.00    -6000.00
04581              -4.00    -5800.00
04582              -4.00    -5800.00
04583              -6.00    -5400.00
04584             -10.00    -5400.00
04585              -8.00    -5200.00
04586              -4.00    -5000.00
04587              -2.00    -5000.00
04588              -4.00    -4800.00
04589              -4.00    -4400.00
04590              -6.00    -4400.00
04591              -8.00    -4200.00
04592              -4.00    -4000.00
04593              -4.00    -3800.00
04594              -2.00    -3800.00
04595              -4.00    -3600.00
04596              -4.00    -3400.00
04597              -6.00    -3200.00
04598              -4.00    -2800.00
04599              -4.00    -2600.00
04600              -2.00    -2600.00
04601              -4.00    -2400.00
04602              -4.00    -2400.00
04603              -4.00    -2000.00
04604              -8.00    -1800.00
04605              -4.00    -1800.00
04606              -4.00    -1600.00
04607              -2.00    -1200.00
04608              -4.00    -1200.00
04609              -4.00    -1000.00
04610              -8.00     -800.00
04611             -10.00     -600.00
04612              -4.00     -400.00
04613              -4.00     -200.00
04614              -2.00        0.00
04615              -2.00        0.00
04616               0.00      400.00
04617              22.00      400.00
04618               4.00      600.00
04619             -16.00      800.00
04620              -6.00     1000.00
04621               6.00     1200.00
04622               4.00     1200.00
04623              40.00     1400.00
04624             220.00     1800.00
04625             118.00     2000.00
04626            -248.00     2200.00
04627            -248.00     2200.00
04628             -10.00     2200.00
04629              92.00     2600.00
04630             252.00     3000.00
04631              -4.00     2800.00
04632            -248.00     3000.00
04633             252.00     3200.00
04634             252.00     3400.00
04635            -248.00     3800.00
04636              54.00     3600.00
04637             252.00     4000.00
04638            -248.00     4400.00
04639              84.00     4000.00
04640             128.00     4800.00
04641            -248.00     4800.00
04642             226.00     4400.00
04643               0.00     5200.00
04644            -180.00     5200.00
04645             150.00     5000.00
04646             -50.00     6000.00
04647             -50.00     5600.00
04648              92.00     5600.00
04649              -2.00     6400.00
04650             -74.00     6000.00
04651             -42.00     6200.00
04652             140.00     6800.00
04653             -68.00     6400.00
04654             -88.00     6800.00
04655             156.00     6800.00
04656             -98.00     7200.00
04657             -44.00     7200.00
04658             100.00     7400.00
04659             -68.00     7600.00
04660              24.00     7400.00
04661              12.00     8000.00
04662             -54.00     8000.00
04663              12.00     7800.00
04664              28.00     8400.00
04665              -4.00     8000.00
04666             -36.00     8400.00
04667              30.00     8600.00
04668             -16.00     8600.00
04669             -36.00     8600.00
04670              64.00     8800.00
04671             -40.00     9200.00
04672             -30.00     9200.00
04673              54.00     9200.00
04674             -28.00     9400.00
04675             -26.00     9200.00
04676              20.00     9600.00
04677              -2.00     9400.00
04678             -12.00     9600.00
04679               4.00     9800.00
04680              -8.00    10000.00
04681             -16.00    10000.00
04682              14.00    10000.00
04683             -10.00    10200.00
04684             -20.00    10200.00
04685              14.00    10200.00
04686              -8.00    10400.00
04687             -12.00    10400.00
04688              12.00    10400.00
04689             -14.00    10400.00
04690             -18.00    10600.00
04691              14.00    10800.00
04692               4.00    10800.00
04693             -20.00    10800.00
04694               4.00    10800.00
04695              -2.00    10800.00
04696             -16.00    11000.00
04697               4.00    11000.00
04698               0.00    11000.00
04699             -10.00    11000.00
04700               0.00    11200.00
04701              -4.00    11200.00
04702             -10.00    11000.00
04703               4.00    11200.00
04704              -2.00    11200.00
04705              -6.00    11000.00
04706               4.00    11200.00
04707              -4.00    11200.00
04708             -14.00    11200.00
04709               0.00    11200.00
04710              -2.00    11200.00
04711              -8.00    11000.00
04712               4.00    11200.00
04713              -2.00    11200.00
04714             -10.00    11200.00
04715               0.00    11200.00
04716               0.00    11000.00
04717              -4.00    11200.00
04718              -2.00    11200.00
04719               2.00    11200.00
04720              -4.00    11200.00
04721              -2.00    11000.00
04722              -4.00    11000.00
04723              -8.00    11200.00
04724               4.00    10800.00
04725               2.00    10800.00
04726              -4.00    10800.00
04727               0.00    10600.00
04728              -2.00    10800.00
04729              -4.00    10400.00
04730               0.00    10400.00
04731               4.00    10400.00
04732              -4.00    10400.00
04733              -2.00    10400.00
04734               0.00    10200.00
04735              -4.00    10400.00
04736              -2.00    10000.00
04737               0.00    10000.00
04738               0.00    10000.00
04739              -2.00    10000.00
04740              -4.00     9800.00
04741              -2.00     9600.00
04742              -4.00     9600.00
04743              -4.00     9400.00
04744               0.00     9400.00
04745               0.00     9200.00
04746              -2.00     9200.00
04747              -4.00     9000.00
04748              -2.00     8800.00
04749              -2.00     8800.00
04750              -4.00     8800.00
04751               0.00     8600.00
04752               0.00     8600.00
04753              -4.00     8400.00
04754              -2.00     8400.00
04755              -4.00     8000.00
04756              -4.00     8200.00
04757              -2.00     7800.00
04758              -2.00     7800.00
04759              -2.00     7600.00
04760              -4.00     7400.00
04761              -2.00     7200.00
04762              -4.00     7200.00
04763              -4.00     7200.00
04764               0.00     7000.00
04765              -2.00     6800.00
04766               0.00     6400.00
04767               0.00     6600.00
04768              -2.00     6400.00
04769              -2.00     6200.00
04770               0.00     6000.00
04771               0.00     6000.00
04772               0.00     5800.00
04773              -2.00     5600.00
04774              -2.00     5400.00
04775               0.00     5400.00
04776              -2.00     5200.00
04777               0.00     5000.00
04778               0.00     4600.00
04779               0.00     4600.00
04780               0.00     4600.00
04781              -2.00     4200.00
04782              -2.00     4000.00
04783               0.00     3800.00
04784               0.00     3600.00
04785               4.00     3600.00
04786               0.00     3200.00
04787               0.00     3200.00
04788               0.00     3000.00
04789              -2.00     2800.00
04790               2.00     2600.00
04791               2.00     2600.00
04792               4.00     2400.00
04793               2.00     2200.00
04794               0.00     2000.00
04795               0.00     1600.00
04796               2.00     1600.00
04797               0.00     1400.00
04798               0.00     1200.00
04799               4.00     1000.00
04800               0.00      800.00
04801               0.00      600.00
04802               0.00      600.00
04803              -2.00      200.00
04804               4.00        0.00
04805               4.00     -200.00
04806               6.00     -200.00
04807               6.00     -400.00
04808              22.00     -600.00
04809              16.00     -800.00
04810              -8.00    -1000.00
04811              -4.00    -1200.00
04812              10.00    -1400.00
04813               8.00    -1600.00
04814              14.00    -1600.00
04815              94.00    -1600.00
04816             230.00    -2200.00
04817               2.00    -2600.00
04818            -248.00    -2600.00
04819            -208.00    -2800.00
04820              54.00    -2800.00
04821              24.00    -2600.00
04822             252.00    -3000.00
04823             104.00    -3600.00
04824            -248.00    -3200.00
04825             172.00    -3600.00
04826             252.00    -4200.00
04827            -248.00    -3400.00
04828             -90.00    -4200.00
04829             250.00    -4400.00
04830             -96.00    -4000.00
04831              32.00    -4800.00
04832              -8.00    -4800.00
04833            -124.00    -4800.00
04834             120.00    -5400.00
04835              52.00    -5200.00
04836             -66.00    -5400.00
04837             -16.00    -5600.00
04838              -8.00    -5800.00
04839              50.00    -6000.00
04840              30.00    -6000.00
04841             -32.00    -6400.00
04842             -44.00    -6400.00
04843              22.00    -6600.00
04844              76.00    -7000.00
04845             -34.00    -6800.00
04846             -44.00    -7000.00
04847              30.00    -7400.00
04848              12.00    -7200.00
04849               6.00    -7400.00
04850             -18.00    -7600.00
04851               6.00    -7600.00
04852              30.00    -8000.00
04853             -18.00    -8000.00
04854             -10.00    -8200.00
04855               0.00    -8200.00
04856               8.00    -8400.00
04857              26.00    -8400.00
04858              -4.00    -8600.00
04859             -20.00    -8800.00
04860              -2.00    -8800.00
04861              16.00    -9000.00
04862              12.00    -9200.00
04863              -4.00    -9200.00
04864              -2.00    -9400.00
04865               0.00    -9400.00
04866               8.00    -9600.00
04867              -4.00    -9600.00
04868             -10.00    -9800.00
04869              14.00    -9800.00
04870               8.00   -10000.00
04871             -10.00   -10000.00
04872              -2.00   -10000.00
04873               0.00   -10200.00
04874              -4.00   -10400.00
04875               4.00   -10400.00
04876               4.00   -10400.00
04877              -2.00   -10600.00
04878               4.00   -10600.00
04879              -2.00   -10600.00
04880              -8.00   -10800.00
04881              -2.00   -10800.00
04882               4.00   -10800.00
04883               0.00   -10800.00
04884               6.00   -10800.00
04885              -4.00   -10800.00
04886              -8.00   -11000.00
04887              -2.00   -11200.00
04888               4.00   -11200.00
04889              -4.00   -11000.00
04890               6.00   -11200.00
04891               0.00   -11200.00
04892              -8.00   -11400.00
04893              -6.00   -11200.00
04894              -2.00   -11400.00
04895              -4.00   -11200.00
04896               4.00   -11200.00
04897               4.00   -11400.00
04898              -2.00   -11400.00
04899              -4.00   -11400.00
04900              -4.00   -11400.00
04901              -4.00   -11200.00
04902               2.00   -11400.00
04903               4.00   -11200.00
04904              -2.00   -11400.00
04905              -2.00   -11200.00
04906              -4.00   -11400.00
04907              -4.00   -11200.00
04908               0.00   -11200.00
04909               4.00   -11200.00
04910              -2.00   -11200.00
04911              -2.00   -11200.00
04912              -2.00   -11200.00
04913              -4.00   -11200.00
04914              -4.00   -11000.00
04915               0.00   -10800.00
04916               2.00   -11000.00
04917               0.00   -10800.00
04918              -2.00   -10800.00
04919              -4.00   -10800.00
04920              -6.00   -10800.00
04921              -2.00   -10800.00
04922              -2.00   -10600.00
04923               2.00   -10600.00
04924               0.00   -10400.00
04925              -4.00   -10400.00
04926              -4.00   -10400.00
04927              -4.00   -10400.00
04928              -4.00   -10000.00
04929               0.00   -10000.00
04930               0.00    -9800.00
04931              -4.00    -9800.00
04932              -4.00    -9800.00
04933              -8.00    -9600.00
04934              -4.00    -9800.00
04935              -4.00    -9600.00
04936              -4.00    -9600.00
04937              -2.00    -9600.00
04938              -8.00    -9200.00
04939              -8.00    -9200.00
04940              -4.00    -9000.00
04941             -10.00    -9000.00
04942               0.00    -8800.00
04943              -4.00    -8800.00
04944              -6.00    -8400.00
04945              -4.00    -8600.00
04946             -10.00    -8400.00
04947              -6.00    -8200.00
04948              -4.00    -8000.00
04949              -4.00    -8000.00
04950              -2.00    -8000.00
04951              -4.00    -7600.00
04952              -8.00    -7600.00
04953              -8.00    -7600.00
04954              -6.00    -7400.00
04955              -4.00    -7200.00
04956              -4.00    -7200.00
04957              -2.00    -6800.00
04958              -6.00    -6800.00
04959              -8.00    -6600.00
04960              -4.00    -6400.00
04961              -6.00    -6400.00
04962              -2.00    -6000.00
04963              -2.00    -5800.00
04964              -4.00    -5800.00
04965              -4.00    -5600.00
04966              -4.00    -5400.00
04967              -8.00    -5200.00
04968              -6.00    -5000.00
04969              -4.00    -5000.00
04970              -4.00    -4800.00
04971              -4.00    -4800.00
04972              -8.00    -4600.00
04973              -6.00    -4200.00
04974              -4.00    -4200.00
04975              -4.00    -4000.00
04976              -4.00    -3600.00
04977              -2.00    -3600.00
04978              -4.00    -3400.00
04979              -6.00    -3400.00
04980              -6.00    -3200.00
04981              -4.00    -2800.00
04982              -4.00    -2600.00
04983              -4.00    -2600.00
04984              -4.00    -2400.00
04985              -4.00    -2200.00
04986              -8.00    -2000.00
04987              -8.00    -1800.00
04988              -4.00    -1600.00
04989              -4.00    -1400.00
04990              -4.00    -1200.00
04991              -4.00    -1000.00
04992              -6.00     -800.00
04993              -8.00     -600.00
04994              -4.00     -400.00
04995              -4.00     -400.00
04996              -2.00     -200.00
04997              -2.00        0.00
04998               0.00      200.00
04999              14.00      400.00
05000              14.00      600.00
