Unit:(mV)
                     CH1         CH2
Frequency              ? 299.119 kHz
00001             160.00    -2200.00
00002             720.00    -2600.00
00003            1180.00    -3000.00
00004             340.00    -3200.00
00005            -800.00    -3400.00
00006           -1060.00    -3600.00
00007            -780.00    -3800.00
00008            -740.00    -4000.00
00009            -260.00    -4200.00
00010             560.00    -5000.00
00011             320.00    -4600.00
00012             420.00    -5000.00
00013              80.00    -5600.00
00014              20.00    -5200.00
00015             320.00    -6000.00
00016              60.00    -6000.00
00017             140.00    -6600.00
00018              80.00    -6600.00
00019             -20.00    -6600.00
00020            -100.00    -7400.00
00021              80.00    -7000.00
00022             140.00    -7600.00
00023             -80.00    -7600.00
00024             140.00    -8000.00
00025             180.00    -8200.00
00026              80.00    -8200.00
00027              60.00    -9000.00
00028             180.00    -8600.00
00029             160.00    -9000.00
00030              60.00    -9200.00
00031             100.00    -9400.00
00032             140.00    -9800.00
00033             100.00    -9800.00
00034             140.00   -10200.00
00035             220.00   -10200.00
00036             160.00   -10600.00
00037             140.00   -10800.00
00038             220.00   -11000.00
00039             220.00   -11000.00
00040             180.00   -11400.00
00041             220.00   -11600.00
00042             240.00   -11400.00
00043             180.00   -11800.00
00044             220.00   -11800.00
00045             320.00   -12000.00
00046             300.00   -12200.00
00047             260.00   -12400.00
00048             320.00   -12600.00
00049             340.00   -12400.00
00050             320.00   -13000.00
00051             340.00   -13000.00
00052             400.00   -13000.00
00053             340.00   -13000.00
00054             380.00   -13200.00
00055             460.00   -13400.00
00056             480.00   -13400.00
00057             500.00   -13400.00
00058             540.00   -13800.00
00059             560.00   -13600.00
00060             560.00   -13600.00
00061             580.00   -14000.00
00062             640.00   -13800.00
00063             660.00   -14200.00
00064             720.00   -14000.00
00065             780.00   -14200.00
00066             800.00   -14200.00
00067             820.00   -14200.00
00068             900.00   -14400.00
00069             960.00   -14400.00
00070            1020.00   -14400.00
00071            1080.00   -14600.00
00072            1160.00   -14400.00
00073            1220.00   -14600.00
00074            1280.00   -14600.00
00075            1400.00   -14400.00
00076            1500.00   -14600.00
00077            1600.00   -14600.00
00078            1740.00   -14600.00
00079            1880.00   -14600.00
00080            1980.00   -14400.00
00081            2080.00   -14600.00
00082            2180.00   -14400.00
00083            2260.00   -14200.00
00084            2320.00   -14200.00
00085            2400.00   -14200.00
00086            2420.00   -14000.00
00087            2420.00   -14000.00
00088            2400.00   -14200.00
00089            2380.00   -14000.00
00090            2340.00   -14000.00
00091            2260.00   -13600.00
00092            2160.00   -13800.00
00093            2060.00   -13600.00
00094            1920.00   -13600.00
00095            1820.00   -13400.00
00096            1700.00   -13400.00
00097            1600.00   -13400.00
00098            1500.00   -13200.00
00099            1360.00   -13000.00
00100            1260.00   -13000.00
00101            1160.00   -12800.00
00102            1060.00   -12800.00
00103             980.00   -12600.00
00104             920.00   -12400.00
00105             860.00   -12200.00
00106             780.00   -12200.00
00107             700.00   -12000.00
00108             660.00   -12000.00
00109             620.00   -11800.00
00110             580.00   -11600.00
00111             540.00   -11400.00
00112             500.00   -11200.00
00113             480.00   -11000.00
00114             440.00   -10800.00
00115             400.00   -10800.00
00116             380.00   -10600.00
00117             360.00   -10200.00
00118             340.00   -10200.00
00119             340.00    -9800.00
00120             320.00    -9800.00
00121             300.00    -9400.00
00122             300.00    -9200.00
00123             260.00    -9200.00
00124             280.00    -9000.00
00125             240.00    -8600.00
00126             240.00    -8600.00
00127             220.00    -8200.00
00128             200.00    -8000.00
00129             200.00    -7800.00
00130             180.00    -7600.00
00131             220.00    -7200.00
00132             180.00    -7200.00
00133             180.00    -7000.00
00134             160.00    -6600.00
00135             180.00    -6600.00
00136             160.00    -6200.00
00137             160.00    -6000.00
00138             140.00    -5800.00
00139             140.00    -5600.00
00140             140.00    -5200.00
00141             140.00    -5000.00
00142             100.00    -4600.00
00143             140.00    -4400.00
00144             140.00    -4200.00
00145             120.00    -3800.00
00146             140.00    -3600.00
00147             100.00    -3400.00
00148             100.00    -3000.00
00149             100.00    -2800.00
00150             140.00    -2600.00
00151              80.00    -2200.00
00152             100.00    -2000.00
00153             100.00    -1800.00
00154              80.00    -1400.00
00155             100.00    -1400.00
00156             100.00     -800.00
00157              80.00     -600.00
00158              80.00     -400.00
00159              80.00        0.00
00160              80.00      200.00
00161             100.00      400.00
00162             180.00      600.00
00163             260.00      800.00
00164             240.00     1200.00
00165             180.00     1400.00
00166             140.00     1600.00
00167             160.00     1800.00
00168             380.00     2200.00
00169            1260.00     2800.00
00170            1280.00     2800.00
00171             -80.00     3000.00
00172           -1260.00     3200.00
00173           -1180.00     3400.00
00174           -1040.00     4000.00
00175            -420.00     4200.00
00176             800.00     4200.00
00177             420.00     4400.00
00178             400.00     5000.00
00179               0.00     4600.00
00180            -160.00     5600.00
00181             280.00     5800.00
00182            -160.00     5400.00
00183             180.00     6200.00
00184             140.00     6200.00
00185            -100.00     6800.00
00186            -220.00     6600.00
00187            -100.00     7000.00
00188             140.00     7600.00
00189            -160.00     7000.00
00190              60.00     7800.00
00191             -20.00     7800.00
00192             -60.00     8200.00
00193            -140.00     8400.00
00194             -60.00     8600.00
00195             -60.00     9000.00
00196            -160.00     8800.00
00197             -80.00     9400.00
00198            -160.00     9400.00
00199            -100.00     9800.00
00200            -220.00    10000.00
00201             -20.00    10200.00
00202            -140.00    10200.00
00203            -160.00    10600.00
00204            -160.00    10800.00
00205            -180.00    11000.00
00206            -220.00    11000.00
00207            -180.00    11200.00
00208            -180.00    11400.00
00209            -260.00    11600.00
00210            -260.00    11600.00
00211            -240.00    12000.00
00212            -240.00    12000.00
00213            -260.00    12200.00
00214            -300.00    12200.00
00215            -340.00    12400.00
00216            -340.00    12600.00
00217            -320.00    12800.00
00218            -320.00    13000.00
00219            -360.00    13000.00
00220            -420.00    13000.00
00221            -420.00    13400.00
00222            -420.00    13400.00
00223            -460.00    13400.00
00224            -420.00    13800.00
00225            -480.00    13800.00
00226            -560.00    13800.00
00227            -580.00    13800.00
00228            -620.00    13800.00
00229            -660.00    14000.00
00230            -660.00    14000.00
00231            -700.00    14200.00
00232            -740.00    14000.00
00233            -800.00    14000.00
00234            -860.00    14200.00
00235            -900.00    14400.00
00236            -960.00    14200.00
00237           -1020.00    14200.00
00238           -1060.00    14400.00
00239           -1140.00    14400.00
00240           -1240.00    14400.00
00241           -1300.00    14600.00
00242           -1380.00    14400.00
00243           -1500.00    14600.00
00244           -1580.00    14400.00
00245           -1700.00    14400.00
00246           -1840.00    14400.00
00247           -1940.00    14600.00
00248           -2080.00    14400.00
00249           -2180.00    14200.00
00250           -2260.00    14200.00
00251           -2320.00    14200.00
00252           -2400.00    14200.00
00253           -2420.00    14200.00
00254           -2460.00    14000.00
00255           -2420.00    14000.00
00256           -2400.00    14000.00
00257           -2340.00    13800.00
00258           -2260.00    13800.00
00259           -2180.00    13800.00
00260           -2080.00    13600.00
00261           -1980.00    13600.00
00262           -1860.00    13400.00
00263           -1760.00    13400.00
00264           -1620.00    13400.00
00265           -1500.00    13200.00
00266           -1400.00    13200.00
00267           -1300.00    13000.00
00268           -1200.00    12800.00
00269           -1100.00    12800.00
00270           -1020.00    12600.00
00271            -940.00    12400.00
00272            -880.00    12400.00
00273            -800.00    12200.00
00274            -740.00    12200.00
00275            -700.00    11800.00
00276            -640.00    11800.00
00277            -580.00    11600.00
00278            -560.00    11400.00
00279            -500.00    11400.00
00280            -480.00    11000.00
00281            -480.00    11000.00
00282            -440.00    10800.00
00283            -420.00    10400.00
00284            -380.00    10600.00
00285            -340.00    10200.00
00286            -340.00     9800.00
00287            -340.00     9800.00
00288            -320.00     9800.00
00289            -320.00     9400.00
00290            -260.00     9200.00
00291            -260.00     9000.00
00292            -260.00     8600.00
00293            -260.00     8600.00
00294            -260.00     8200.00
00295            -260.00     8200.00
00296            -240.00     7800.00
00297            -220.00     7600.00
00298            -220.00     7400.00
00299            -220.00     7200.00
00300            -220.00     6800.00
00301            -180.00     6600.00
00302            -180.00     6600.00
00303            -220.00     6200.00
00304            -180.00     6000.00
00305            -160.00     5800.00
00306            -160.00     5400.00
00307            -160.00     5200.00
00308            -160.00     5000.00
00309            -160.00     4600.00
00310            -180.00     4400.00
00311            -140.00     4200.00
00312            -140.00     3800.00
00313            -120.00     3600.00
00314            -140.00     3400.00
00315            -140.00     3000.00
00316            -100.00     2800.00
00317            -140.00     2600.00
00318            -100.00     2200.00
00319            -100.00     2000.00
00320            -100.00     1800.00
00321             -80.00     1400.00
00322            -100.00     1000.00
00323            -100.00     1000.00
00324            -100.00      600.00
00325            -100.00      400.00
00326            -100.00      200.00
00327             -80.00     -200.00
00328             -20.00     -400.00
00329              80.00     -600.00
00330             160.00    -1000.00
00331             140.00    -1000.00
00332              60.00    -1400.00
00333               0.00    -1600.00
00334              20.00    -1800.00
00335             140.00    -2200.00
00336             500.00    -2200.00
00337            1180.00    -2800.00
00338             700.00    -3200.00
00339            -540.00    -3400.00
00340           -1100.00    -3600.00
00341            -840.00    -3600.00
00342            -720.00    -4000.00
00343            -540.00    -3800.00
00344             420.00    -4600.00
00345             400.00    -4600.00
00346             360.00    -4600.00
00347             180.00    -5600.00
00348             -80.00    -5200.00
00349             320.00    -5800.00
00350             160.00    -6000.00
00351             140.00    -6200.00
00352             140.00    -6600.00
00353             -20.00    -6200.00
00354            -140.00    -7400.00
00355             -40.00    -7000.00
00356             160.00    -7400.00
00357               0.00    -7800.00
00358              80.00    -8000.00
00359             220.00    -8200.00
00360              80.00    -8200.00
00361               0.00    -8800.00
00362             100.00    -8800.00
00363             200.00    -9000.00
00364              80.00    -9400.00
00365             100.00    -9400.00
00366             140.00    -9800.00
00367             120.00    -9600.00
00368             100.00   -10200.00
00369             160.00   -10000.00
00370             180.00   -10400.00
00371             160.00   -10800.00
00372             220.00   -11000.00
00373             240.00   -11000.00
00374             160.00   -11200.00
00375             160.00   -11400.00
00376             240.00   -11400.00
00377             220.00   -11800.00
00378             220.00   -11800.00
00379             260.00   -12000.00
00380             300.00   -12200.00
00381             260.00   -12200.00
00382             300.00   -12400.00
00383             320.00   -12400.00
00384             300.00   -12600.00
00385             340.00   -13000.00
00386             400.00   -13000.00
00387             400.00   -13200.00
00388             380.00   -13200.00
00389             420.00   -13200.00
00390             460.00   -13400.00
00391             460.00   -13400.00
00392             520.00   -13600.00
00393             560.00   -13400.00
00394             560.00   -13800.00
00395             560.00   -13800.00
00396             620.00   -13800.00
00397             640.00   -14000.00
00398             700.00   -14000.00
00399             780.00   -14200.00
00400             800.00   -14200.00
00401             820.00   -14200.00
00402             880.00   -14200.00
00403             940.00   -14400.00
00404            1000.00   -14200.00
00405            1060.00   -14400.00
00406            1180.00   -14600.00
00407            1220.00   -14400.00
00408            1260.00   -14600.00
00409            1380.00   -14400.00
00410            1460.00   -14400.00
00411            1580.00   -14600.00
00412            1700.00   -14600.00
00413            1820.00   -14600.00
00414            1920.00   -14400.00
00415            2020.00   -14600.00
00416            2140.00   -14200.00
00417            2240.00   -14600.00
00418            2320.00   -14400.00
00419            2400.00   -14200.00
00420            2420.00   -14200.00
00421            2420.00   -14200.00
00422            2400.00   -14200.00
00423            2400.00   -14000.00
00424            2340.00   -14000.00
00425            2300.00   -13800.00
00426            2220.00   -13800.00
00427            2080.00   -13600.00
00428            1980.00   -13600.00
00429            1860.00   -13600.00
00430            1760.00   -13400.00
00431            1620.00   -13400.00
00432            1520.00   -13400.00
00433            1420.00   -13200.00
00434            1280.00   -13000.00
00435            1180.00   -12800.00
00436            1100.00   -12600.00
00437            1000.00   -12600.00
00438             940.00   -12400.00
00439             860.00   -12400.00
00440             800.00   -12200.00
00441             720.00   -12200.00
00442             640.00   -11800.00
00443             620.00   -11800.00
00444             560.00   -11600.00
00445             540.00   -11400.00
00446             500.00   -11400.00
00447             480.00   -11200.00
00448             420.00   -11000.00
00449             400.00   -10800.00
00450             400.00   -10600.00
00451             380.00   -10600.00
00452             380.00   -10200.00
00453             320.00   -10000.00
00454             320.00    -9800.00
00455             280.00    -9800.00
00456             260.00    -9400.00
00457             260.00    -9200.00
00458             260.00    -9200.00
00459             260.00    -8800.00
00460             240.00    -8600.00
00461             220.00    -8400.00
00462             200.00    -8200.00
00463             220.00    -7800.00
00464             200.00    -7800.00
00465             180.00    -7200.00
00466             200.00    -7000.00
00467             180.00    -7000.00
00468             160.00    -6600.00
00469             160.00    -6600.00
00470             160.00    -6400.00
00471             160.00    -6000.00
00472             160.00    -5800.00
00473             160.00    -5400.00
00474             140.00    -5200.00
00475             140.00    -5000.00
00476             140.00    -4600.00
00477             140.00    -4600.00
00478             140.00    -4200.00
00479             120.00    -3800.00
00480             140.00    -3600.00
00481             100.00    -3400.00
00482             140.00    -3000.00
00483             100.00    -2800.00
00484             100.00    -2600.00
00485             100.00    -2400.00
00486             100.00    -2200.00
00487              80.00    -1800.00
00488              80.00    -1600.00
00489             100.00    -1400.00
00490              80.00    -1000.00
00491              80.00     -600.00
00492             100.00     -400.00
00493              80.00     -200.00
00494              80.00      200.00
00495             100.00      400.00
00496             160.00      600.00
00497             240.00      800.00
00498             240.00     1000.00
00499             220.00     1200.00
00500             160.00     1600.00
00501             140.00     1600.00
00502             260.00     2200.00
00503             960.00     2600.00
00504            1460.00     2800.00
00505             400.00     3000.00
00506           -1020.00     3200.00
00507           -1320.00     3400.00
00508           -1020.00     3800.00
00509            -800.00     4000.00
00510             540.00     4200.00
00511             620.00     4200.00
00512             380.00     5000.00
00513             180.00     4600.00
00514            -260.00     5200.00
00515             300.00     6000.00
00516             -80.00     5400.00
00517               0.00     6200.00
00518             240.00     6000.00
00519             -80.00     6400.00
00520            -180.00     6800.00
00521            -220.00     6600.00
00522             140.00     7600.00
00523            -100.00     7000.00
00524             -20.00     7600.00
00525              60.00     7800.00
00526             -80.00     8200.00
00527            -100.00     8400.00
00528            -100.00     8400.00
00529               0.00     9000.00
00530            -160.00     8600.00
00531            -100.00     9200.00
00532            -160.00     9400.00
00533            -140.00     9600.00
00534            -180.00     9800.00
00535             -60.00    10000.00
00536             -20.00    10400.00
00537            -160.00    10200.00
00538            -160.00    10600.00
00539            -220.00    10800.00
00540            -220.00    11000.00
00541            -240.00    11000.00
00542            -160.00    11400.00
00543            -240.00    11400.00
00544            -260.00    11600.00
00545            -220.00    12000.00
00546            -220.00    12000.00
00547            -260.00    12200.00
00548            -300.00    12400.00
00549            -320.00    12400.00
00550            -340.00    12600.00
00551            -320.00    12600.00
00552            -300.00    13000.00
00553            -340.00    13000.00
00554            -420.00    13200.00
00555            -420.00    13200.00
00556            -460.00    13400.00
00557            -420.00    13400.00
00558            -460.00    13400.00
00559            -480.00    13400.00
00560            -540.00    13800.00
00561            -580.00    13800.00
00562            -580.00    14000.00
00563            -640.00    14000.00
00564            -660.00    14000.00
00565            -660.00    14000.00
00566            -740.00    14200.00
00567            -820.00    14200.00
00568            -860.00    14200.00
00569            -880.00    14200.00
00570            -960.00    14200.00
00571            -980.00    14400.00
00572           -1040.00    14400.00
00573           -1120.00    14600.00
00574           -1220.00    14400.00
00575           -1300.00    14200.00
00576           -1360.00    14600.00
00577           -1480.00    14400.00
00578           -1540.00    14600.00
00579           -1620.00    14600.00
00580           -1760.00    14400.00
00581           -1940.00    14400.00
00582           -2020.00    14400.00
00583           -2160.00    14400.00
00584           -2240.00    14200.00
00585           -2320.00    14200.00
00586           -2360.00    14200.00
00587           -2420.00    14200.00
00588           -2460.00    14200.00
00589           -2460.00    14200.00
00590           -2420.00    14000.00
00591           -2380.00    14000.00
00592           -2260.00    14000.00
00593           -2180.00    13800.00
00594           -2140.00    13800.00
00595           -2040.00    13600.00
00596           -1920.00    13600.00
00597           -1780.00    13400.00
00598           -1620.00    13400.00
00599           -1540.00    13200.00
00600           -1420.00    13200.00
00601           -1340.00    13200.00
00602           -1220.00    13000.00
00603           -1120.00    13000.00
00604           -1040.00    12600.00
00605            -960.00    12400.00
00606            -880.00    12600.00
00607            -800.00    12200.00
00608            -740.00    12200.00
00609            -720.00    12000.00
00610            -640.00    11800.00
00611            -580.00    11400.00
00612            -560.00    11400.00
00613            -540.00    11400.00
00614            -500.00    11200.00
00615            -480.00    11000.00
00616            -460.00    10800.00
00617            -400.00    10600.00
00618            -380.00    10600.00
00619            -340.00    10200.00
00620            -340.00    10000.00
00621            -340.00     9800.00
00622            -340.00     9800.00
00623            -300.00     9400.00
00624            -300.00     9200.00
00625            -280.00     9000.00
00626            -260.00     8800.00
00627            -240.00     8600.00
00628            -240.00     8400.00
00629            -240.00     8200.00
00630            -220.00     7800.00
00631            -220.00     7800.00
00632            -220.00     7400.00
00633            -180.00     7200.00
00634            -220.00     7000.00
00635            -220.00     6600.00
00636            -180.00     6600.00
00637            -160.00     6200.00
00638            -180.00     5800.00
00639            -180.00     5800.00
00640            -160.00     5600.00
00641            -180.00     5200.00
00642            -180.00     5000.00
00643            -160.00     4600.00
00644            -120.00     4400.00
00645            -140.00     4200.00
00646            -120.00     3800.00
00647            -140.00     3600.00
00648            -160.00     3400.00
00649            -140.00     3000.00
00650            -120.00     3000.00
00651            -100.00     2600.00
00652            -100.00     2400.00
00653            -100.00     2200.00
00654            -100.00     1800.00
00655            -100.00     1600.00
00656            -100.00     1200.00
00657             -80.00     1000.00
00658             -80.00      600.00
00659             -80.00      400.00
00660             -80.00      200.00
00661             -80.00     -200.00
00662             -60.00     -200.00
00663              20.00     -600.00
00664             140.00     -800.00
00665             140.00    -1000.00
00666             100.00    -1400.00
00667              60.00    -1400.00
00668              20.00    -1800.00
00669              60.00    -2000.00
00670             320.00    -2200.00
00671            1040.00    -2600.00
00672             980.00    -3200.00
00673            -160.00    -3200.00
00674           -1040.00    -3600.00
00675            -960.00    -3800.00
00676            -720.00    -3800.00
00677            -700.00    -3800.00
00678             160.00    -4400.00
00679             520.00    -5000.00
00680             340.00    -4400.00
00681             340.00    -5400.00
00682             -60.00    -5400.00
00683             220.00    -5600.00
00684             220.00    -6000.00
00685              60.00    -6000.00
00686             160.00    -6800.00
00687              20.00    -6200.00
00688             -60.00    -7000.00
00689             -80.00    -7200.00
00690             160.00    -7000.00
00691              20.00    -7800.00
00692             -20.00    -7800.00
00693             180.00    -8200.00
00694             100.00    -8000.00
00695              60.00    -8600.00
00696              60.00    -9000.00
00697             220.00    -8600.00
00698             100.00    -9200.00
00699              80.00    -9400.00
00700             100.00    -9600.00
00701             140.00    -9800.00
00702             100.00   -10200.00
00703             140.00   -10200.00
00704             180.00   -10400.00
00705             140.00   -10800.00
00706             180.00   -10800.00
00707             220.00   -11000.00
00708             200.00   -11000.00
00709             140.00   -11400.00
00710             220.00   -11400.00
00711             220.00   -11600.00
00712             180.00   -11800.00
00713             240.00   -12000.00
00714             300.00   -12200.00
00715             260.00   -12200.00
00716             260.00   -12400.00
00717             320.00   -12400.00
00718             320.00   -12600.00
00719             340.00   -13000.00
00720             380.00   -12800.00
00721             380.00   -13000.00
00722             380.00   -13200.00
00723             400.00   -13400.00
00724             480.00   -13400.00
00725             480.00   -13400.00
00726             500.00   -13400.00
00727             540.00   -13600.00
00728             540.00   -13800.00
00729             560.00   -14000.00
00730             620.00   -14000.00
00731             640.00   -14000.00
00732             700.00   -14200.00
00733             760.00   -14200.00
00734             800.00   -14200.00
00735             820.00   -14200.00
00736             860.00   -14400.00
00737             940.00   -14400.00
00738             960.00   -14400.00
00739            1040.00   -14200.00
00740            1140.00   -14600.00
00741            1200.00   -14600.00
00742            1260.00   -14600.00
00743            1320.00   -14400.00
00744            1460.00   -14600.00
00745            1520.00   -14400.00
00746            1660.00   -14600.00
00747            1780.00   -14600.00
00748            1900.00   -14400.00
00749            2000.00   -14400.00
00750            2100.00   -14600.00
00751            2220.00   -14200.00
00752            2300.00   -14200.00
00753            2380.00   -14200.00
00754            2420.00   -14200.00
00755            2440.00   -14200.00
00756            2420.00   -14200.00
00757            2400.00   -14200.00
00758            2360.00   -14000.00
00759            2300.00   -13800.00
00760            2220.00   -13600.00
00761            2140.00   -13600.00
00762            2000.00   -13800.00
00763            1900.00   -13600.00
00764            1780.00   -13400.00
00765            1660.00   -13400.00
00766            1520.00   -13200.00
00767            1440.00   -13200.00
00768            1300.00   -12800.00
00769            1200.00   -13000.00
00770            1120.00   -12800.00
00771            1020.00   -12600.00
00772             940.00   -12600.00
00773             860.00   -12200.00
00774             820.00   -12400.00
00775             740.00   -12200.00
00776             700.00   -12000.00
00777             640.00   -11800.00
00778             580.00   -11800.00
00779             560.00   -11400.00
00780             540.00   -11400.00
00781             500.00   -11200.00
00782             460.00   -11000.00
00783             420.00   -10800.00
00784             400.00   -10600.00
00785             380.00   -10600.00
00786             340.00   -10200.00
00787             320.00   -10000.00
00788             320.00   -10000.00
00789             300.00    -9800.00
00790             300.00    -9400.00
00791             260.00    -9200.00
00792             260.00    -9000.00
00793             240.00    -8800.00
00794             240.00    -8600.00
00795             220.00    -8400.00
00796             220.00    -8200.00
00797             220.00    -8000.00
00798             220.00    -7800.00
00799             220.00    -7400.00
00800             220.00    -7200.00
00801             180.00    -7000.00
00802             180.00    -6800.00
00803             160.00    -6600.00
00804             140.00    -6200.00
00805             140.00    -6200.00
00806             160.00    -5800.00
00807             180.00    -5400.00
00808             140.00    -5400.00
00809             140.00    -5000.00
00810             140.00    -4800.00
00811             140.00    -4600.00
00812             140.00    -4400.00
00813             140.00    -4200.00
00814             140.00    -3800.00
00815             100.00    -3400.00
00816              80.00    -3200.00
00817             120.00    -3000.00
00818             120.00    -2800.00
00819             120.00    -2600.00
00820             100.00    -2200.00
00821              80.00    -2000.00
00822              80.00    -1600.00
00823              80.00    -1400.00
00824              80.00    -1200.00
00825             100.00     -800.00
00826              60.00     -600.00
00827              80.00     -400.00
00828              80.00     -200.00
00829              60.00      200.00
00830             140.00      400.00
00831             220.00      600.00
00832             240.00     1000.00
00833             220.00     1200.00
00834             160.00     1400.00
00835             140.00     1600.00
00836             180.00     1800.00
00837             660.00     2200.00
00838            1500.00     2800.00
00839             820.00     2800.00
00840            -660.00     3000.00
00841           -1360.00     3000.00
00842           -1060.00     3600.00
00843            -960.00     3800.00
00844             180.00     4200.00
00845             780.00     4200.00
00846             340.00     4800.00
00847             340.00     5000.00
00848            -260.00     4600.00
00849             100.00     6000.00
00850             140.00     5400.00
00851            -100.00     5800.00
00852             260.00     6200.00
00853             -20.00     6200.00
00854            -140.00     7000.00
00855            -260.00     6600.00
00856              60.00     7400.00
00857               0.00     7400.00
00858            -100.00     7400.00
00859              80.00     8000.00
00860             -60.00     7800.00
00861             -20.00     8400.00
00862            -140.00     8200.00
00863              20.00     9000.00
00864            -140.00     9000.00
00865            -100.00     9200.00
00866            -140.00     9400.00
00867            -140.00     9800.00
00868            -160.00     9800.00
00869            -160.00     9800.00
00870             -20.00    10200.00
00871            -160.00    10200.00
00872            -140.00    10600.00
00873            -220.00    10800.00
00874            -180.00    11000.00
00875            -220.00    11000.00
00876            -160.00    11400.00
00877            -220.00    11400.00
00878            -260.00    11600.00
00879            -240.00    11800.00
00880            -240.00    12000.00
00881            -260.00    12200.00
00882            -260.00    12200.00
00883            -320.00    12400.00
00884            -340.00    12400.00
00885            -340.00    12600.00
00886            -320.00    12800.00
00887            -320.00    13000.00
00888            -400.00    13000.00
00889            -420.00    13200.00
00890            -420.00    13400.00
00891            -440.00    13200.00
00892            -460.00    13400.00
00893            -460.00    13600.00
00894            -520.00    13800.00
00895            -580.00    13800.00
00896            -620.00    14000.00
00897            -640.00    13800.00
00898            -660.00    14000.00
00899            -660.00    14000.00
00900            -700.00    14200.00
00901            -780.00    14200.00
00902            -860.00    14200.00
00903            -880.00    14200.00
00904            -940.00    14400.00
00905            -980.00    14400.00
00906           -1040.00    14200.00
00907           -1120.00    14600.00
00908           -1200.00    14600.00
00909           -1280.00    14400.00
00910           -1340.00    14600.00
00911           -1440.00    14600.00
00912           -1540.00    14600.00
00913           -1620.00    14600.00
00914           -1740.00    14600.00
00915           -1880.00    14400.00
00916           -2000.00    14200.00
00917           -2100.00    14600.00
00918           -2220.00    14200.00
00919           -2300.00    14200.00
00920           -2340.00    14400.00
00921           -2400.00    14200.00
00922           -2440.00    14200.00
00923           -2460.00    14200.00
00924           -2420.00    14000.00
00925           -2400.00    14000.00
00926           -2320.00    14000.00
00927           -2240.00    13800.00
00928           -2140.00    13800.00
00929           -2060.00    13600.00
00930           -1920.00    13600.00
00931           -1820.00    13600.00
00932           -1680.00    13400.00
00933           -1540.00    13400.00
00934           -1440.00    13200.00
00935           -1360.00    13200.00
00936           -1260.00    13000.00
00937           -1160.00    12800.00
00938           -1040.00    12600.00
00939            -980.00    12600.00
00940            -880.00    12400.00
00941            -840.00    12400.00
00942            -780.00    12200.00
00943            -720.00    12200.00
00944            -660.00    11800.00
00945            -620.00    11600.00
00946            -560.00    11600.00
00947            -540.00    11400.00
00948            -500.00    11200.00
00949            -480.00    11000.00
00950            -460.00    10800.00
00951            -420.00    10800.00
00952            -400.00    10400.00
00953            -380.00    10200.00
00954            -340.00    10000.00
00955            -340.00     9800.00
00956            -340.00     9800.00
00957            -320.00     9400.00
00958            -300.00     9200.00
00959            -300.00     9200.00
00960            -260.00     8800.00
00961            -260.00     8600.00
00962            -260.00     8400.00
00963            -260.00     8200.00
00964            -240.00     7800.00
00965            -220.00     7800.00
00966            -220.00     7400.00
00967            -220.00     7000.00
00968            -220.00     6800.00
00969            -200.00     6800.00
00970            -220.00     6600.00
00971            -180.00     6200.00
00972            -180.00     6000.00
00973            -180.00     5800.00
00974            -160.00     5600.00
00975            -180.00     5200.00
00976            -160.00     5000.00
00977            -160.00     5000.00
00978            -160.00     4400.00
00979            -160.00     4200.00
00980            -120.00     4000.00
00981            -140.00     3800.00
00982            -140.00     3600.00
00983            -140.00     3200.00
00984            -140.00     3000.00
00985            -120.00     2800.00
00986            -100.00     2600.00
00987            -100.00     2200.00
00988            -100.00     2000.00
00989            -100.00     1800.00
00990             -80.00     1400.00
00991             -80.00     1200.00
00992             -80.00     1000.00
00993             -80.00      600.00
00994             -80.00      400.00
00995             -80.00        0.00
00996             -80.00     -200.00
00997               0.00     -400.00
00998             120.00     -600.00
00999             160.00     -800.00
01000             100.00    -1200.00
01001              60.00    -1400.00
01002              20.00    -1600.00
01003              60.00    -1800.00
01004             220.00    -2200.00
01005             820.00    -2200.00
01006            1140.00    -3000.00
01007             220.00    -3200.00
01008            -860.00    -3400.00
01009           -1060.00    -3600.00
01010            -740.00    -3800.00
01011            -740.00    -3800.00
01012            -180.00    -4200.00
01013             580.00    -4800.00
01014             320.00    -4600.00
01015             420.00    -5200.00
01016              20.00    -5600.00
01017              60.00    -5200.00
01018             300.00    -6000.00
01019              60.00    -6000.00
01020             160.00    -6600.00
01021              80.00    -6600.00
01022             -20.00    -6600.00
01023            -140.00    -7400.00
01024              80.00    -7000.00
01025             100.00    -7800.00
01026             -20.00    -7600.00
01027             160.00    -8000.00
01028             160.00    -8200.00
01029              60.00    -8400.00
01030              40.00    -9000.00
01031             180.00    -8800.00
01032             140.00    -9200.00
01033              60.00    -9400.00
01034              80.00    -9600.00
01035             160.00    -9800.00
01036             100.00    -9800.00
01037             140.00   -10200.00
01038             220.00   -10200.00
01039             140.00   -10800.00
01040             140.00   -10800.00
01041             220.00   -11000.00
01042             220.00   -11200.00
01043             160.00   -11400.00
01044             180.00   -11400.00
01045             240.00   -11600.00
01046             200.00   -11800.00
01047             220.00   -11800.00
01048             300.00   -12200.00
01049             300.00   -12000.00
01050             260.00   -12400.00
01051             320.00   -12400.00
01052             320.00   -12600.00
01053             300.00   -13000.00
01054             380.00   -12800.00
01055             400.00   -13000.00
01056             380.00   -13000.00
01057             400.00   -13200.00
01058             460.00   -13400.00
01059             480.00   -13400.00
01060             480.00   -13400.00
01061             560.00   -13600.00
01062             560.00   -13800.00
01063             540.00   -13800.00
01064             580.00   -13800.00
01065             640.00   -14000.00
01066             700.00   -14000.00
01067             740.00   -14200.00
01068             800.00   -14200.00
01069             800.00   -14200.00
01070             840.00   -14200.00
01071             920.00   -14200.00
01072             960.00   -14200.00
01073            1040.00   -14600.00
01074            1100.00   -14400.00
01075            1180.00   -14400.00
01076            1220.00   -14600.00
01077            1300.00   -14400.00
01078            1420.00   -14600.00
01079            1520.00   -14600.00
01080            1620.00   -14600.00
01081            1760.00   -14600.00
01082            1880.00   -14200.00
01083            1960.00   -14400.00
01084            2080.00   -14600.00
01085            2160.00   -14200.00
01086            2300.00   -14400.00
01087            2340.00   -14200.00
01088            2400.00   -14200.00
01089            2420.00   -14000.00
01090            2420.00   -14000.00
01091            2400.00   -14200.00
01092            2360.00   -14000.00
01093            2320.00   -14000.00
01094            2240.00   -13600.00
01095            2160.00   -13800.00
01096            2020.00   -13600.00
01097            1900.00   -13600.00
01098            1780.00   -13400.00
01099            1680.00   -13400.00
01100            1580.00   -13200.00
01101            1480.00   -13200.00
01102            1360.00   -13200.00
01103            1240.00   -13000.00
01104            1120.00   -13000.00
01105            1040.00   -12600.00
01106             960.00   -12600.00
01107             900.00   -12400.00
01108             820.00   -12400.00
01109             780.00   -12200.00
01110             700.00   -12000.00
01111             640.00   -11800.00
01112             620.00   -11800.00
01113             580.00   -11600.00
01114             540.00   -11400.00
01115             500.00   -11400.00
01116             480.00   -11000.00
01117             420.00   -11000.00
01118             400.00   -10600.00
01119             380.00   -10600.00
01120             380.00   -10400.00
01121             340.00   -10000.00
01122             320.00   -10000.00
01123             320.00    -9800.00
01124             300.00    -9400.00
01125             300.00    -9400.00
01126             260.00    -9200.00
01127             260.00    -9000.00
01128             260.00    -8600.00
01129             240.00    -8600.00
01130             220.00    -8200.00
01131             220.00    -8200.00
01132             200.00    -7800.00
01133             220.00    -7200.00
01134             220.00    -7400.00
01135             220.00    -7000.00
01136             180.00    -7000.00
01137             180.00    -6600.00
01138             160.00    -6400.00
01139             160.00    -6200.00
01140             160.00    -6000.00
01141             180.00    -5600.00
01142             140.00    -5400.00
01143             120.00    -5200.00
01144             140.00    -5000.00
01145             120.00    -4600.00
01146             140.00    -4600.00
01147             160.00    -4200.00
01148             160.00    -3800.00
01149              80.00    -3600.00
01150              80.00    -3400.00
01151             100.00    -3000.00
01152             140.00    -2800.00
01153             140.00    -2600.00
01154             120.00    -2400.00
01155              80.00    -2000.00
01156              80.00    -1800.00
01157              60.00    -1400.00
01158              80.00    -1400.00
01159              80.00     -800.00
01160              60.00     -600.00
01161              60.00     -400.00
01162              80.00     -200.00
01163              80.00      200.00
01164             100.00      400.00
01165             220.00      600.00
01166             240.00     1000.00
01167             220.00     1000.00
01168             160.00     1400.00
01169             140.00     1800.00
01170             160.00     1800.00
01171             460.00     2200.00
01172            1340.00     2800.00
01173            1180.00     3000.00
01174            -240.00     3000.00
01175           -1300.00     3400.00
01176           -1160.00     3400.00
01177           -1020.00     3800.00
01178            -300.00     4200.00
01179             820.00     4200.00
01180             400.00     4600.00
01181             400.00     5000.00
01182            -100.00     4400.00
01183            -100.00     5800.00
01184             240.00     5800.00
01185            -160.00     5600.00
01186             220.00     6400.00
01187              80.00     6200.00
01188            -120.00     6800.00
01189            -240.00     6600.00
01190             -60.00     7000.00
01191              80.00     7400.00
01192            -160.00     7000.00
01193              80.00     7800.00
01194             -60.00     7800.00
01195             -40.00     8400.00
01196            -140.00     8400.00
01197             -20.00     8600.00
01198             -60.00     9000.00
01199            -120.00     9000.00
01200             -80.00     9400.00
01201            -160.00     9400.00
01202            -100.00     9800.00
01203            -180.00     9800.00
01204             -20.00    10200.00
01205            -140.00    10200.00
01206            -140.00    10400.00
01207            -160.00    10800.00
01208            -180.00    11000.00
01209            -200.00    11000.00
01210            -180.00    11400.00
01211            -180.00    11600.00
01212            -260.00    11600.00
01213            -260.00    11800.00
01214            -240.00    12000.00
01215            -240.00    12200.00
01216            -260.00    12200.00
01217            -300.00    12400.00
01218            -320.00    12600.00
01219            -340.00    12400.00
01220            -320.00    13000.00
01221            -320.00    13000.00
01222            -400.00    13000.00
01223            -420.00    13000.00
01224            -460.00    13400.00
01225            -460.00    13400.00
01226            -460.00    13400.00
01227            -460.00    13400.00
01228            -500.00    13800.00
01229            -560.00    13600.00
01230            -620.00    13800.00
01231            -640.00    14000.00
01232            -660.00    14000.00
01233            -680.00    14200.00
01234            -700.00    14200.00
01235            -740.00    14200.00
01236            -820.00    14200.00
01237            -880.00    14200.00
01238            -940.00    14400.00
01239            -980.00    14200.00
01240           -1020.00    14400.00
01241           -1060.00    14600.00
01242           -1180.00    14600.00
01243           -1260.00    14600.00
01244           -1300.00    14600.00
01245           -1420.00    14400.00
01246           -1520.00    14600.00
01247           -1600.00    14400.00
01248           -1700.00    14400.00
01249           -1840.00    14400.00
01250           -1940.00    14400.00
01251           -2060.00    14600.00
01252           -2180.00    14200.00
01253           -2260.00    14200.00
01254           -2320.00    14200.00
01255           -2400.00    14200.00
01256           -2420.00    14200.00
01257           -2420.00    14000.00
01258           -2420.00    14200.00
01259           -2400.00    14000.00
01260           -2340.00    14000.00
01261           -2260.00    13800.00
01262           -2160.00    13800.00
01263           -2080.00    13800.00
01264           -1960.00    13600.00
01265           -1860.00    13600.00
01266           -1720.00    13400.00
01267           -1600.00    13400.00
01268           -1460.00    13200.00
01269           -1380.00    13200.00
01270           -1280.00    13000.00
01271           -1180.00    13000.00
01272           -1060.00    13000.00
01273            -980.00    12600.00
01274            -920.00    12400.00
01275            -880.00    12400.00
01276            -800.00    12200.00
01277            -740.00    12200.00
01278            -680.00    11800.00
01279            -620.00    11800.00
01280            -580.00    11600.00
01281            -540.00    11400.00
01282            -500.00    11400.00
01283            -500.00    11000.00
01284            -480.00    11000.00
01285            -460.00    10600.00
01286            -400.00    10600.00
01287            -400.00    10200.00
01288            -340.00    10000.00
01289            -360.00    10000.00
01290            -340.00     9800.00
01291            -320.00     9400.00
01292            -320.00     9400.00
01293            -280.00     9200.00
01294            -260.00     9000.00
01295            -260.00     8600.00
01296            -260.00     8400.00
01297            -260.00     8200.00
01298            -240.00     8000.00
01299            -240.00     7800.00
01300            -200.00     7600.00
01301            -220.00     7400.00
01302            -220.00     7000.00
01303            -220.00     6800.00
01304            -220.00     6600.00
01305            -180.00     6400.00
01306            -180.00     6200.00
01307            -180.00     5800.00
01308            -180.00     5800.00
01309            -180.00     5400.00
01310            -160.00     5000.00
01311            -160.00     4800.00
01312            -160.00     4600.00
01313            -140.00     4400.00
01314            -140.00     4200.00
01315            -140.00     3800.00
01316            -140.00     3600.00
01317            -140.00     3400.00
01318            -100.00     3000.00
01319            -120.00     3000.00
01320            -120.00     2600.00
01321            -100.00     2200.00
01322            -100.00     2000.00
01323            -100.00     1800.00
01324            -100.00     1400.00
01325            -100.00     1200.00
01326            -100.00      800.00
01327             -80.00      800.00
01328             -80.00      400.00
01329             -80.00      200.00
01330             -60.00     -200.00
01331               0.00     -400.00
01332              80.00     -600.00
01333             160.00    -1000.00
01334             140.00    -1200.00
01335              60.00    -1400.00
01336              40.00    -1800.00
01337              20.00    -1800.00
01338             140.00    -2000.00
01339             580.00    -2200.00
01340            1180.00    -2800.00
01341             580.00    -3200.00
01342            -620.00    -3400.00
01343           -1100.00    -3600.00
01344            -800.00    -3800.00
01345            -720.00    -3800.00
01346            -480.00    -4000.00
01347             480.00    -4600.00
01348             380.00    -4600.00
01349             400.00    -4600.00
01350             180.00    -5800.00
01351             -60.00    -5200.00
01352             320.00    -5800.00
01353             100.00    -6000.00
01354             100.00    -6200.00
01355             140.00    -6600.00
01356             -20.00    -6400.00
01357            -100.00    -7400.00
01358               0.00    -7000.00
01359             160.00    -7400.00
01360             -60.00    -7800.00
01361              80.00    -8000.00
01362             180.00    -8200.00
01363              80.00    -8200.00
01364              20.00    -9000.00
01365             140.00    -8800.00
01366             180.00    -9000.00
01367              80.00    -9400.00
01368              60.00    -9400.00
01369             120.00    -9800.00
01370             120.00    -9800.00
01371             100.00   -10200.00
01372             180.00   -10200.00
01373             180.00   -10600.00
01374             140.00   -10600.00
01375             200.00   -10800.00
01376             220.00   -11000.00
01377             160.00   -11400.00
01378             180.00   -11600.00
01379             240.00   -11400.00
01380             220.00   -11600.00
01381             220.00   -11800.00
01382             300.00   -12000.00
01383             300.00   -12200.00
01384             260.00   -12400.00
01385             300.00   -12400.00
01386             320.00   -12600.00
01387             320.00   -12600.00
01388             380.00   -13000.00
01389             400.00   -12800.00
01390             400.00   -13200.00
01391             380.00   -13200.00
01392             460.00   -13200.00
01393             480.00   -13400.00
01394             480.00   -13400.00
01395             540.00   -13600.00
01396             560.00   -13800.00
01397             560.00   -13800.00
01398             600.00   -14000.00
01399             640.00   -13600.00
01400             660.00   -14000.00
01401             720.00   -14000.00
01402             780.00   -14200.00
01403             800.00   -14200.00
01404             820.00   -14200.00
01405             880.00   -14400.00
01406             960.00   -14400.00
01407            1000.00   -14400.00
01408            1060.00   -14200.00
01409            1180.00   -14400.00
01410            1200.00   -14600.00
01411            1280.00   -14600.00
01412            1380.00   -14600.00
01413            1500.00   -14600.00
01414            1600.00   -14600.00
01415            1740.00   -14600.00
01416            1820.00   -14400.00
01417            1920.00   -14400.00
01418            2020.00   -14400.00
01419            2160.00   -14600.00
01420            2260.00   -14200.00
01421            2320.00   -14200.00
01422            2400.00   -14200.00
01423            2400.00   -14200.00
01424            2420.00   -14200.00
01425            2400.00   -14200.00
01426            2380.00   -14000.00
01427            2320.00   -14000.00
01428            2260.00   -13800.00
01429            2220.00   -13600.00
01430            2080.00   -13800.00
01431            1920.00   -13600.00
01432            1820.00   -13400.00
01433            1740.00   -13400.00
01434            1620.00   -13400.00
01435            1520.00   -13200.00
01436            1420.00   -13200.00
01437            1260.00   -13000.00
01438            1140.00   -13000.00
01439            1080.00   -12600.00
01440            1000.00   -12600.00
01441             920.00   -12400.00
01442             860.00   -12400.00
01443             800.00   -12200.00
01444             700.00   -12200.00
01445             640.00   -12000.00
01446             620.00   -11800.00
01447             580.00   -11600.00
01448             540.00   -11400.00
01449             500.00   -11400.00
01450             480.00   -11200.00
01451             440.00   -10800.00
01452             420.00   -10800.00
01453             400.00   -10600.00
01454             380.00   -10600.00
01455             380.00   -10200.00
01456             320.00   -10000.00
01457             320.00    -9800.00
01458             300.00    -9400.00
01459             300.00    -9400.00
01460             300.00    -9200.00
01461             260.00    -9000.00
01462             260.00    -9000.00
01463             240.00    -8600.00
01464             220.00    -8400.00
01465             220.00    -8200.00
01466             220.00    -7800.00
01467             220.00    -7600.00
01468             220.00    -7200.00
01469             200.00    -7000.00
01470             180.00    -6800.00
01471             160.00    -6800.00
01472             160.00    -6400.00
01473             160.00    -6200.00
01474             160.00    -6000.00
01475             160.00    -5800.00
01476             160.00    -5400.00
01477             140.00    -5000.00
01478             140.00    -5000.00
01479             140.00    -4600.00
01480             140.00    -4400.00
01481             140.00    -4200.00
01482             140.00    -3800.00
01483             100.00    -3600.00
01484             100.00    -3600.00
01485             100.00    -3000.00
01486             100.00    -3000.00
01487             100.00    -2600.00
01488              80.00    -2400.00
01489             100.00    -2000.00
01490              80.00    -1800.00
01491              80.00    -1600.00
01492              80.00    -1200.00
01493              60.00     -800.00
01494              80.00     -800.00
01495              80.00     -600.00
01496              80.00     -200.00
01497              60.00      200.00
01498              80.00      400.00
01499             160.00      600.00
01500             260.00      800.00
01501             260.00     1200.00
01502             180.00     1200.00
01503             160.00     1400.00
01504             160.00     1800.00
01505             300.00     2000.00
01506            1040.00     2600.00
01507            1420.00     2800.00
01508             220.00     2800.00
01509           -1120.00     3000.00
01510           -1280.00     3600.00
01511           -1020.00     3800.00
01512            -660.00     4000.00
01513             660.00     4200.00
01514             540.00     4200.00
01515             400.00     5000.00
01516             140.00     4600.00
01517            -260.00     5400.00
01518             280.00     6000.00
01519            -100.00     5400.00
01520             100.00     6200.00
01521             220.00     6200.00
01522            -100.00     6600.00
01523            -180.00     6800.00
01524            -160.00     6600.00
01525             160.00     7600.00
01526            -120.00     7000.00
01527              20.00     7800.00
01528               0.00     7800.00
01529             -60.00     8200.00
01530            -100.00     8600.00
01531             -80.00     8400.00
01532               0.00     9200.00
01533            -160.00     8600.00
01534             -60.00     9400.00
01535            -160.00     9400.00
01536            -100.00     9800.00
01537            -180.00     9800.00
01538             -80.00    10000.00
01539            -100.00    10400.00
01540            -160.00    10200.00
01541            -140.00    10800.00
01542            -180.00    10800.00
01543            -180.00    11000.00
01544            -200.00    11000.00
01545            -160.00    11400.00
01546            -260.00    11400.00
01547            -260.00    11600.00
01548            -240.00    12000.00
01549            -240.00    12000.00
01550            -260.00    12200.00
01551            -280.00    12200.00
01552            -320.00    12400.00
01553            -380.00    12400.00
01554            -320.00    13000.00
01555            -320.00    12600.00
01556            -380.00    13000.00
01557            -420.00    13000.00
01558            -420.00    13200.00
01559            -460.00    13200.00
01560            -480.00    13400.00
01561            -480.00    13400.00
01562            -480.00    13600.00
01563            -540.00    13800.00
01564            -580.00    13800.00
01565            -620.00    13800.00
01566            -660.00    14000.00
01567            -660.00    14000.00
01568            -660.00    14200.00
01569            -720.00    14200.00
01570            -800.00    14200.00
01571            -860.00    14200.00
01572            -900.00    14200.00
01573            -960.00    14200.00
01574            -980.00    14200.00
01575           -1060.00    14400.00
01576           -1140.00    14400.00
01577           -1220.00    14600.00
01578           -1300.00    14600.00
01579           -1380.00    14600.00
01580           -1460.00    14600.00
01581           -1580.00    14400.00
01582           -1660.00    14600.00
01583           -1780.00    14600.00
01584           -1920.00    14600.00
01585           -2040.00    14400.00
01586           -2140.00    14400.00
01587           -2240.00    14200.00
01588           -2300.00    14200.00
01589           -2360.00    14200.00
01590           -2420.00    14200.00
01591           -2440.00    14200.00
01592           -2420.00    14200.00
01593           -2400.00    14200.00
01594           -2380.00    14000.00
01595           -2280.00    13800.00
01596           -2180.00    13800.00
01597           -2100.00    14000.00
01598           -2020.00    13800.00
01599           -1900.00    13600.00
01600           -1760.00    13600.00
01601           -1620.00    13400.00
01602           -1520.00    13400.00
01603           -1420.00    13200.00
01604           -1340.00    13000.00
01605           -1220.00    13000.00
01606           -1120.00    12800.00
01607           -1020.00    12600.00
01608            -940.00    12600.00
01609            -880.00    12400.00
01610            -800.00    12200.00
01611            -740.00    12200.00
01612            -700.00    11800.00
01613            -660.00    11800.00
01614            -620.00    11600.00
01615            -580.00    11600.00
01616            -540.00    11200.00
01617            -500.00    11000.00
01618            -460.00    11000.00
01619            -420.00    11000.00
01620            -420.00    10400.00
01621            -400.00    10400.00
01622            -400.00    10200.00
01623            -380.00    10000.00
01624            -340.00     9800.00
01625            -300.00     9800.00
01626            -300.00     9400.00
01627            -300.00     9200.00
01628            -300.00     9000.00
01629            -300.00     8800.00
01630            -260.00     8400.00
01631            -260.00     8400.00
01632            -260.00     8200.00
01633            -240.00     7800.00
01634            -220.00     7600.00
01635            -220.00     7400.00
01636            -220.00     7000.00
01637            -240.00     6800.00
01638            -180.00     6600.00
01639            -180.00     6400.00
01640            -160.00     6200.00
01641            -160.00     6000.00
01642            -160.00     5800.00
01643            -180.00     5400.00
01644            -180.00     5200.00
01645            -160.00     5000.00
01646            -160.00     4600.00
01647            -100.00     4400.00
01648            -120.00     4200.00
01649            -140.00     4000.00
01650            -140.00     3800.00
01651            -160.00     3400.00
01652            -140.00     3200.00
01653            -100.00     2800.00
01654            -100.00     2600.00
01655            -100.00     2400.00
01656            -100.00     2000.00
01657            -100.00     1800.00
01658            -100.00     1600.00
01659            -100.00     1200.00
01660             -80.00     1000.00
01661             -80.00      800.00
01662             -80.00      400.00
01663             -80.00      200.00
01664             -80.00        0.00
01665             -60.00     -200.00
01666              20.00     -600.00
01667             140.00     -800.00
01668             160.00    -1000.00
01669             100.00    -1200.00
01670              40.00    -1400.00
01671              20.00    -1800.00
01672              80.00    -2000.00
01673             380.00    -2200.00
01674            1100.00    -2600.00
01675             900.00    -3200.00
01676            -260.00    -3200.00
01677           -1060.00    -3800.00
01678            -900.00    -3800.00
01679            -720.00    -4000.00
01680            -660.00    -4200.00
01681             260.00    -4400.00
01682             480.00    -4800.00
01683             340.00    -4600.00
01684             320.00    -5600.00
01685             -80.00    -5400.00
01686             240.00    -5400.00
01687             180.00    -6000.00
01688              60.00    -6200.00
01689             160.00    -6800.00
01690               0.00    -6200.00
01691             -80.00    -7000.00
01692             -80.00    -7200.00
01693             160.00    -7000.00
01694               0.00    -7800.00
01695               0.00    -7600.00
01696             200.00    -8200.00
01697             100.00    -8000.00
01698              60.00    -8800.00
01699              80.00    -8800.00
01700             220.00    -9000.00
01701             100.00    -9400.00
01702              60.00    -9400.00
01703             100.00    -9600.00
01704             140.00    -9800.00
01705              80.00   -10000.00
01706             160.00   -10200.00
01707             220.00   -10200.00
01708             140.00   -10600.00
01709             220.00   -10800.00
01710             220.00   -11000.00
01711             180.00   -11200.00
01712             160.00   -11400.00
01713             240.00   -11400.00
01714             220.00   -11600.00
01715             180.00   -11800.00
01716             260.00   -11800.00
01717             300.00   -12200.00
01718             300.00   -12200.00
01719             300.00   -12400.00
01720             340.00   -12600.00
01721             320.00   -12600.00
01722             340.00   -13000.00
01723             400.00   -12800.00
01724             380.00   -13000.00
01725             380.00   -13200.00
01726             420.00   -13200.00
01727             480.00   -13400.00
01728             480.00   -13400.00
01729             540.00   -13600.00
01730             580.00   -13400.00
01731             560.00   -13800.00
01732             560.00   -13800.00
01733             620.00   -14000.00
01734             640.00   -14000.00
01735             700.00   -14000.00
01736             780.00   -14000.00
01737             820.00   -14200.00
01738             800.00   -14200.00
01739             860.00   -14200.00
01740             960.00   -14200.00
01741             980.00   -14400.00
01742            1020.00   -14200.00
01743            1120.00   -14600.00
01744            1180.00   -14600.00
01745            1260.00   -14400.00
01746            1340.00   -14600.00
01747            1440.00   -14400.00
01748            1540.00   -14600.00
01749            1660.00   -14600.00
01750            1800.00   -14600.00
01751            1900.00   -14400.00
01752            2000.00   -14400.00
01753            2100.00   -14400.00
01754            2220.00   -14200.00
01755            2300.00   -14400.00
01756            2380.00   -14200.00
01757            2420.00   -14200.00
01758            2440.00   -14200.00
01759            2400.00   -14200.00
01760            2380.00   -14000.00
01761            2340.00   -14000.00
01762            2300.00   -14000.00
01763            2220.00   -13600.00
01764            2100.00   -13600.00
01765            2000.00   -13600.00
01766            1880.00   -13400.00
01767            1760.00   -13400.00
01768            1660.00   -13400.00
01769            1520.00   -13400.00
01770            1420.00   -13200.00
01771            1300.00   -13200.00
01772            1200.00   -12800.00
01773            1120.00   -12600.00
01774            1020.00   -12600.00
01775             940.00   -12600.00
01776             900.00   -12400.00
01777             800.00   -12200.00
01778             720.00   -12200.00
01779             660.00   -11800.00
01780             640.00   -11800.00
01781             620.00   -11600.00
01782             580.00   -11400.00
01783             560.00   -11200.00
01784             480.00   -11200.00
01785             440.00   -11000.00
01786             400.00   -10800.00
01787             400.00   -10600.00
01788             380.00   -10400.00
01789             380.00   -10200.00
01790             380.00   -10000.00
01791             320.00    -9800.00
01792             300.00    -9800.00
01793             300.00    -9400.00
01794             260.00    -9200.00
01795             280.00    -9200.00
01796             260.00    -9000.00
01797             240.00    -8600.00
01798             220.00    -8400.00
01799             220.00    -8200.00
01800             220.00    -7800.00
01801             220.00    -7800.00
01802             220.00    -7200.00
01803             180.00    -7200.00
01804             180.00    -7000.00
01805             160.00    -6800.00
01806             180.00    -6600.00
01807             180.00    -6400.00
01808             160.00    -6000.00
01809             160.00    -5800.00
01810             160.00    -5600.00
01811             160.00    -5200.00
01812             140.00    -5200.00
01813             140.00    -4600.00
01814             120.00    -4600.00
01815             120.00    -4400.00
01816             140.00    -4000.00
01817             100.00    -3800.00
01818             100.00    -3400.00
01819             100.00    -3200.00
01820             100.00    -3200.00
01821             100.00    -2800.00
01822              80.00    -2400.00
01823              80.00    -2200.00
01824              80.00    -2000.00
01825              80.00    -1600.00
01826              60.00    -1400.00
01827              80.00    -1200.00
01828              80.00     -800.00
01829             100.00     -600.00
01830              80.00     -400.00
01831              60.00     -200.00
01832              60.00      200.00
01833             140.00      600.00
01834             240.00      800.00
01835             240.00     1000.00
01836             220.00     1200.00
01837             160.00     1400.00
01838             140.00     1600.00
01839             220.00     2000.00
01840             780.00     2200.00
01841            1500.00     2800.00
01842             700.00     3000.00
01843            -800.00     3000.00
01844           -1360.00     3400.00
01845           -1040.00     3600.00
01846            -900.00     4000.00
01847             320.00     4200.00
01848             720.00     4200.00
01849             340.00     4800.00
01850             320.00     5000.00
01851            -260.00     5000.00
01852             180.00     6000.00
01853              60.00     5400.00
01854             -80.00     6000.00
01855             300.00     6200.00
01856             -60.00     6400.00
01857            -140.00     7000.00
01858            -260.00     6600.00
01859             100.00     7600.00
01860             -20.00     7400.00
01861             -80.00     7400.00
01862              60.00     8200.00
01863             -60.00     7800.00
01864             -60.00     8400.00
01865            -140.00     8200.00
01866              20.00     9000.00
01867            -160.00     9000.00
01868             -80.00     9000.00
01869            -100.00     9400.00
01870            -100.00     9600.00
01871            -160.00     9800.00
01872            -140.00    10000.00
01873             -60.00    10200.00
01874            -180.00    10200.00
01875            -140.00    10600.00
01876            -200.00    10800.00
01877            -180.00    10800.00
01878            -240.00    11000.00
01879            -160.00    11400.00
01880            -240.00    11400.00
01881            -260.00    11600.00
01882            -260.00    11800.00
01883            -220.00    12000.00
01884            -260.00    12000.00
01885            -260.00    12200.00
01886            -300.00    12200.00
01887            -340.00    12600.00
01888            -340.00    12600.00
01889            -340.00    12800.00
01890            -340.00    13000.00
01891            -420.00    13000.00
01892            -440.00    13000.00
01893            -420.00    13200.00
01894            -460.00    13400.00
01895            -460.00    13400.00
01896            -480.00    13600.00
01897            -540.00    13600.00
01898            -580.00    13800.00
01899            -580.00    13800.00
01900            -640.00    14000.00
01901            -660.00    14000.00
01902            -680.00    14200.00
01903            -700.00    14200.00
01904            -780.00    14200.00
01905            -820.00    14200.00
01906            -880.00    14200.00
01907            -940.00    14200.00
01908            -980.00    14200.00
01909           -1040.00    14600.00
01910           -1120.00    14400.00
01911           -1200.00    14400.00
01912           -1280.00    14200.00
01913           -1360.00    14600.00
01914           -1440.00    14600.00
01915           -1520.00    14400.00
01916           -1620.00    14400.00
01917           -1760.00    14600.00
01918           -1900.00    14600.00
01919           -2020.00    14400.00
01920           -2140.00    14400.00
01921           -2220.00    14200.00
01922           -2280.00    14200.00
01923           -2340.00    14200.00
01924           -2400.00    14200.00
01925           -2460.00    14200.00
01926           -2460.00    14200.00
01927           -2420.00    14000.00
01928           -2380.00    14000.00
01929           -2300.00    14000.00
01930           -2240.00    14000.00
01931           -2160.00    13800.00
01932           -2020.00    13800.00
01933           -1920.00    13600.00
01934           -1780.00    13400.00
01935           -1660.00    13400.00
01936           -1560.00    13400.00
01937           -1440.00    13200.00
01938           -1340.00    13200.00
01939           -1260.00    13000.00
01940           -1140.00    13000.00
01941           -1060.00    12600.00
01942            -960.00    12600.00
01943            -900.00    12600.00
01944            -840.00    12200.00
01945            -780.00    12200.00
01946            -740.00    12000.00
01947            -660.00    11800.00
01948            -620.00    11800.00
01949            -560.00    11400.00
01950            -540.00    11400.00
01951            -520.00    11000.00
01952            -480.00    11000.00
01953            -460.00    10800.00
01954            -420.00    10600.00
01955            -400.00    10200.00
01956            -380.00    10200.00
01957            -360.00    10000.00
01958            -380.00     9800.00
01959            -340.00     9800.00
01960            -320.00     9400.00
01961            -320.00     9400.00
01962            -300.00     9200.00
01963            -260.00     8800.00
01964            -260.00     8600.00
01965            -260.00     8400.00
01966            -240.00     8200.00
01967            -240.00     7800.00
01968            -240.00     7800.00
01969            -220.00     7400.00
01970            -220.00     7200.00
01971            -220.00     7000.00
01972            -220.00     6600.00
01973            -160.00     6600.00
01974            -180.00     6200.00
01975            -180.00     6000.00
01976            -160.00     5800.00
01977            -180.00     5600.00
01978            -160.00     5200.00
01979            -160.00     5000.00
01980            -160.00     5000.00
01981            -140.00     4400.00
01982            -140.00     4200.00
01983            -100.00     4200.00
01984            -140.00     3800.00
01985            -140.00     3600.00
01986            -120.00     3200.00
01987            -140.00     3000.00
01988            -100.00     2800.00
01989            -100.00     2400.00
01990            -100.00     2200.00
01991            -100.00     1800.00
01992            -100.00     1600.00
01993             -80.00     1400.00
01994            -100.00     1200.00
01995             -80.00     1000.00
01996             -80.00      600.00
01997             -80.00      200.00
01998             -80.00        0.00
01999             -60.00     -400.00
02000               0.00     -600.00
02001             140.00     -600.00
02002             160.00    -1000.00
02003             100.00    -1200.00
02004              60.00    -1400.00
02005              20.00    -1800.00
02006              60.00    -1800.00
02007             220.00    -2200.00
02008             880.00    -2400.00
02009            1100.00    -3000.00
02010              80.00    -3200.00
02011            -940.00    -3600.00
02012           -1040.00    -3600.00
02013            -740.00    -3800.00
02014            -740.00    -3800.00
02015             -80.00    -4200.00
02016             560.00    -5000.00
02017             320.00    -4600.00
02018             400.00    -5400.00
02019             -20.00    -5600.00
02020             120.00    -5400.00
02021             300.00    -6000.00
02022              60.00    -6000.00
02023             160.00    -6600.00
02024              60.00    -6200.00
02025             -60.00    -6800.00
02026            -120.00    -7400.00
02027             140.00    -7000.00
02028              80.00    -7800.00
02029             -60.00    -7600.00
02030             160.00    -8200.00
02031             140.00    -8200.00
02032              60.00    -8400.00
02033              40.00    -9000.00
02034             220.00    -8600.00
02035             140.00    -9200.00
02036              60.00    -9400.00
02037             100.00    -9800.00
02038             140.00    -9800.00
02039             120.00   -10000.00
02040             140.00   -10200.00
02041             220.00   -10200.00
02042             140.00   -10600.00
02043             160.00   -10800.00
02044             220.00   -11000.00
02045             220.00   -11000.00
02046             180.00   -11400.00
02047             220.00   -11400.00
02048             240.00   -11600.00
02049             180.00   -11800.00
02050             240.00   -11800.00
02051             300.00   -12200.00
02052             300.00   -12200.00
02053             260.00   -12400.00
02054             340.00   -12400.00
02055             320.00   -12600.00
02056             320.00   -12600.00
02057             380.00   -12600.00
02058             420.00   -13000.00
02059             380.00   -13200.00
02060             400.00   -13200.00
02061             480.00   -13200.00
02062             480.00   -13400.00
02063             500.00   -13600.00
02064             560.00   -13600.00
02065             560.00   -13800.00
02066             560.00   -13800.00
02067             620.00   -13600.00
02068             640.00   -14000.00
02069             700.00   -14000.00
02070             740.00   -14200.00
02071             800.00   -14200.00
02072             800.00   -14200.00
02073             820.00   -14400.00
02074             940.00   -14200.00
02075             980.00   -14400.00
02076            1020.00   -14400.00
02077            1120.00   -14400.00
02078            1180.00   -14400.00
02079            1220.00   -14600.00
02080            1300.00   -14400.00
02081            1420.00   -14600.00
02082            1520.00   -14600.00
02083            1600.00   -14600.00
02084            1760.00   -14400.00
02085            1900.00   -14600.00
02086            1980.00   -14600.00
02087            2060.00   -14600.00
02088            2180.00   -14400.00
02089            2280.00   -14200.00
02090            2340.00   -14200.00
02091            2420.00   -14200.00
02092            2420.00   -14200.00
02093            2400.00   -14200.00
02094            2400.00   -14200.00
02095            2380.00   -14000.00
02096            2320.00   -14000.00
02097            2240.00   -13800.00
02098            2140.00   -13800.00
02099            2020.00   -13600.00
02100            1900.00   -13600.00
02101            1800.00   -13400.00
02102            1680.00   -13400.00
02103            1580.00   -13400.00
02104            1460.00   -13200.00
02105            1360.00   -13200.00
02106            1240.00   -13000.00
02107            1120.00   -12800.00
02108            1040.00   -12600.00
02109             980.00   -12600.00
02110             880.00   -12400.00
02111             820.00   -12400.00
02112             780.00   -12200.00
02113             700.00   -12000.00
02114             640.00   -11800.00
02115             620.00   -11600.00
02116             580.00   -11600.00
02117             540.00   -11400.00
02118             500.00   -11200.00
02119             480.00   -11000.00
02120             420.00   -10800.00
02121             400.00   -10600.00
02122             400.00   -10600.00
02123             380.00   -10200.00
02124             340.00   -10200.00
02125             320.00    -9800.00
02126             320.00    -9800.00
02127             300.00    -9600.00
02128             300.00    -9200.00
02129             260.00    -9200.00
02130             260.00    -9000.00
02131             240.00    -8600.00
02132             240.00    -8400.00
02133             220.00    -8200.00
02134             220.00    -8200.00
02135             200.00    -7800.00
02136             220.00    -7400.00
02137             180.00    -7200.00
02138             180.00    -7000.00
02139             160.00    -6800.00
02140             160.00    -6600.00
02141             160.00    -6400.00
02142             160.00    -6000.00
02143             160.00    -6000.00
02144             160.00    -5600.00
02145             140.00    -5400.00
02146             140.00    -5200.00
02147             140.00    -5000.00
02148             120.00    -4600.00
02149             140.00    -4400.00
02150             140.00    -4200.00
02151             120.00    -3800.00
02152             100.00    -3600.00
02153             100.00    -3200.00
02154              80.00    -3000.00
02155             100.00    -2800.00
02156             100.00    -2800.00
02157              80.00    -2200.00
02158              80.00    -2000.00
02159              80.00    -1800.00
02160              80.00    -1400.00
02161              60.00    -1200.00
02162              80.00    -1000.00
02163              80.00     -600.00
02164              80.00     -400.00
02165              80.00     -200.00
02166              80.00      200.00
02167             100.00      400.00
02168             220.00      600.00
02169             260.00     1000.00
02170             240.00     1000.00
02171             180.00     1400.00
02172             160.00     1800.00
02173             180.00     1800.00
02174             500.00     2200.00
02175            1380.00     2800.00
02176            1100.00     2800.00
02177            -400.00     3000.00
02178           -1340.00     3400.00
02179           -1120.00     3600.00
02180           -1000.00     3800.00
02181            -100.00     4200.00
02182             820.00     4200.00
02183             380.00     4600.00
02184             400.00     5000.00
02185            -140.00     4600.00
02186               0.00     5800.00
02187             240.00     5400.00
02188            -140.00     5600.00
02189             240.00     6200.00
02190              60.00     6200.00
02191             -80.00     6800.00
02192            -240.00     6600.00
02193             -20.00     7200.00
02194              60.00     7400.00
02195            -140.00     7000.00
02196              80.00     8000.00
02197             -40.00     7800.00
02198             -20.00     8400.00
02199            -160.00     8400.00
02200               0.00     8800.00
02201            -100.00     9000.00
02202            -120.00     9000.00
02203            -100.00     9400.00
02204            -160.00     9600.00
02205            -120.00     9800.00
02206            -180.00     9800.00
02207             -20.00    10200.00
02208            -160.00    10200.00
02209            -140.00    10600.00
02210            -180.00    10800.00
02211            -180.00    11000.00
02212            -220.00    11200.00
02213            -180.00    11400.00
02214            -220.00    11400.00
02215            -300.00    11600.00
02216            -260.00    11800.00
02217            -240.00    12000.00
02218            -240.00    12200.00
02219            -260.00    12200.00
02220            -300.00    12400.00
02221            -340.00    12400.00
02222            -380.00    12600.00
02223            -320.00    12800.00
02224            -340.00    13000.00
02225            -400.00    13000.00
02226            -420.00    13200.00
02227            -420.00    13400.00
02228            -460.00    13200.00
02229            -460.00    13400.00
02230            -460.00    13600.00
02231            -500.00    13600.00
02232            -560.00    13800.00
02233            -580.00    13800.00
02234            -640.00    13800.00
02235            -660.00    13800.00
02236            -660.00    14000.00
02237            -660.00    14200.00
02238            -780.00    14200.00
02239            -820.00    14200.00
02240            -860.00    14200.00
02241            -900.00    14200.00
02242            -960.00    14400.00
02243           -1020.00    14400.00
02244           -1100.00    14400.00
02245           -1200.00    14200.00
02246           -1260.00    14400.00
02247           -1300.00    14600.00
02248           -1400.00    14600.00
02249           -1520.00    14600.00
02250           -1600.00    14200.00
02251           -1700.00    14600.00
02252           -1860.00    14400.00
02253           -1980.00    14200.00
02254           -2080.00    14400.00
02255           -2180.00    14400.00
02256           -2260.00    14200.00
02257           -2320.00    14200.00
02258           -2380.00    14200.00
02259           -2420.00    14200.00
02260           -2460.00    14200.00
02261           -2420.00    14000.00
02262           -2400.00    14000.00
02263           -2320.00    13800.00
02264           -2240.00    14000.00
02265           -2160.00    13800.00
02266           -2080.00    13600.00
02267           -1980.00    13800.00
02268           -1860.00    13400.00
02269           -1720.00    13400.00
02270           -1580.00    13400.00
02271           -1460.00    13200.00
02272           -1360.00    13200.00
02273           -1280.00    13000.00
02274           -1200.00    13000.00
02275           -1100.00    12800.00
02276            -980.00    12600.00
02277            -900.00    12400.00
02278            -860.00    12400.00
02279            -800.00    12200.00
02280            -740.00    12200.00
02281            -700.00    11800.00
02282            -640.00    11600.00
02283            -580.00    11600.00
02284            -540.00    11400.00
02285            -500.00    11200.00
02286            -480.00    11000.00
02287            -480.00    10800.00
02288            -460.00    10600.00
02289            -420.00    10400.00
02290            -400.00    10400.00
02291            -380.00    10200.00
02292            -340.00    10000.00
02293            -320.00     9800.00
02294            -320.00     9400.00
02295            -320.00     9400.00
02296            -300.00     9200.00
02297            -260.00     9000.00
02298            -260.00     8600.00
02299            -260.00     8400.00
02300            -260.00     8200.00
02301            -260.00     8200.00
02302            -240.00     7800.00
02303            -220.00     7600.00
02304            -180.00     7400.00
02305            -220.00     7000.00
02306            -180.00     6800.00
02307            -180.00     6600.00
02308            -180.00     6600.00
02309            -180.00     6000.00
02310            -180.00     5800.00
02311            -160.00     5800.00
02312            -180.00     5200.00
02313            -160.00     5000.00
02314            -140.00     5000.00
02315            -140.00     4400.00
02316            -140.00     4400.00
02317            -100.00     4000.00
02318            -140.00     3800.00
02319            -140.00     3600.00
02320            -140.00     3400.00
02321            -140.00     3000.00
02322            -100.00     2800.00
02323            -100.00     2600.00
02324            -100.00     2200.00
02325            -100.00     2000.00
02326            -100.00     1800.00
02327            -100.00     1400.00
02328             -80.00     1200.00
02329             -80.00     1000.00
02330             -80.00      600.00
02331             -80.00      400.00
02332             -80.00        0.00
02333             -80.00     -200.00
02334             -20.00     -400.00
02335              80.00     -600.00
02336             160.00    -1000.00
02337             140.00    -1200.00
02338              60.00    -1400.00
02339              20.00    -1800.00
02340              20.00    -1800.00
02341             140.00    -2200.00
02342             640.00    -2400.00
02343            1200.00    -3000.00
02344             460.00    -3000.00
02345            -720.00    -3400.00
02346           -1100.00    -3600.00
02347            -800.00    -3800.00
02348            -740.00    -4000.00
02349            -400.00    -4200.00
02350             500.00    -5000.00
02351             360.00    -4800.00
02352             420.00    -5000.00
02353             140.00    -5600.00
02354             -20.00    -5200.00
02355             320.00    -6000.00
02356              60.00    -6000.00
02357             140.00    -6600.00
02358             100.00    -6600.00
02359             -20.00    -6600.00
02360            -100.00    -7400.00
02361              60.00    -7000.00
02362             140.00    -7400.00
02363             -60.00    -7600.00
02364             100.00    -7800.00
02365             180.00    -8200.00
02366              80.00    -8200.00
02367              20.00    -8800.00
02368             160.00    -8600.00
02369             180.00    -9000.00
02370              60.00    -9400.00
02371              80.00    -9400.00
02372             140.00    -9800.00
02373             140.00    -9800.00
02374             100.00   -10200.00
02375             220.00   -10000.00
02376             160.00   -10600.00
02377             140.00   -10800.00
02378             220.00   -10800.00
02379             220.00   -11000.00
02380             160.00   -11400.00
02381             220.00   -11400.00
02382             240.00   -11400.00
02383             220.00   -11600.00
02384             220.00   -12000.00
02385             320.00   -12000.00
02386             320.00   -12200.00
02387             300.00   -12200.00
02388             320.00   -12400.00
02389             340.00   -12400.00
02390             320.00   -12600.00
02391             380.00   -12800.00
02392             400.00   -13000.00
02393             380.00   -13200.00
02394             380.00   -13200.00
02395             420.00   -13400.00
02396             480.00   -13400.00
02397             480.00   -13600.00
02398             540.00   -13400.00
02399             560.00   -13400.00
02400             540.00   -13800.00
02401             560.00   -13600.00
02402             640.00   -13800.00
02403             660.00   -14000.00
02404             720.00   -14000.00
02405             780.00   -14200.00
02406             800.00   -14200.00
02407             820.00   -14200.00
02408             880.00   -14200.00
02409             960.00   -14200.00
02410             980.00   -14600.00
02411            1060.00   -14400.00
02412            1140.00   -14400.00
02413            1200.00   -14200.00
02414            1280.00   -14400.00
02415            1380.00   -14600.00
02416            1500.00   -14400.00
02417            1580.00   -14600.00
02418            1700.00   -14200.00
02419            1820.00   -14600.00
02420            1920.00   -14600.00
02421            2060.00   -14600.00
02422            2160.00   -14200.00
02423            2260.00   -14400.00
02424            2320.00   -14400.00
02425            2400.00   -14200.00
02426            2420.00   -14200.00
02427            2400.00   -14000.00
02428            2400.00   -14000.00
02429            2360.00   -14000.00
02430            2320.00   -14000.00
02431            2260.00   -14000.00
02432            2220.00   -13600.00
02433            2120.00   -13600.00
02434            2000.00   -13600.00
02435            1840.00   -13600.00
02436            1740.00   -13400.00
02437            1580.00   -13200.00
02438            1440.00   -13200.00
02439            1300.00   -13200.00
02440            1200.00   -13000.00
02441            1140.00   -12600.00
02442            1100.00   -12600.00
02443            1060.00   -12600.00
02444            1020.00   -12400.00
02445             940.00   -12400.00
02446             820.00   -12200.00
02447             700.00   -12200.00
02448             620.00   -12000.00
02449             540.00   -11800.00
02450             540.00   -11800.00
02451             500.00   -11400.00
02452             540.00   -11200.00
02453             500.00   -11200.00
02454             480.00   -11000.00
02455             460.00   -10800.00
02456             420.00   -10600.00
02457             380.00   -10200.00
02458             340.00   -10200.00
02459             300.00   -10000.00
02460             300.00    -9800.00
02461             260.00    -9600.00
02462             280.00    -9400.00
02463             300.00    -9200.00
02464             300.00    -9000.00
02465             300.00    -8800.00
02466             300.00    -8600.00
02467             240.00    -8200.00
02468             220.00    -8200.00
02469             160.00    -8000.00
02470             160.00    -7600.00
02471             140.00    -7400.00
02472             180.00    -7000.00
02473             180.00    -7000.00
02474             180.00    -6600.00
02475             180.00    -6600.00
02476             180.00    -6200.00
02477             160.00    -6000.00
02478             140.00    -5800.00
02479             140.00    -5400.00
02480              80.00    -5200.00
02481              80.00    -5000.00
02482             140.00    -4600.00
02483             160.00    -4600.00
02484             140.00    -4200.00
02485             140.00    -4000.00
02486             140.00    -3600.00
02487             100.00    -3400.00
02488              80.00    -3200.00
02489              80.00    -3000.00
02490              80.00    -2600.00
02491              80.00    -2200.00
02492             100.00    -2000.00
02493             100.00    -1800.00
02494             100.00    -1400.00
02495              80.00    -1400.00
02496              80.00     -800.00
02497              80.00     -600.00
02498              80.00     -400.00
02499              60.00     -200.00
02500              80.00      200.00
02501              80.00      400.00
02502             180.00      600.00
02503             260.00     1000.00
02504             280.00     1200.00
02505             180.00     1200.00
02506             160.00     1400.00
02507             160.00     1800.00
02508             340.00     2200.00
02509            1160.00     2400.00
02510            1360.00     2800.00
02511              80.00     3000.00
02512           -1180.00     3000.00
02513           -1220.00     3400.00
02514           -1020.00     3800.00
02515            -560.00     4000.00
02516             740.00     4200.00
02517             480.00     4200.00
02518             380.00     5000.00
02519              60.00     4600.00
02520            -220.00     5400.00
02521             300.00     5800.00
02522            -120.00     5400.00
02523             140.00     6200.00
02524             160.00     6000.00
02525            -100.00     6600.00
02526            -220.00     6800.00
02527            -160.00     6800.00
02528             140.00     7600.00
02529            -160.00     7000.00
02530              60.00     7800.00
02531               0.00     7800.00
02532             -20.00     8200.00
02533            -120.00     8400.00
02534             -80.00     8400.00
02535             -20.00     9000.00
02536            -180.00     8600.00
02537             -80.00     9200.00
02538            -180.00     9400.00
02539            -100.00     9800.00
02540            -200.00     9800.00
02541             -60.00    10200.00
02542            -100.00    10200.00
02543            -160.00    10400.00
02544            -160.00    10600.00
02545            -200.00    10800.00
02546            -220.00    11000.00
02547            -180.00    11000.00
02548            -180.00    11400.00
02549            -260.00    11600.00
02550            -260.00    11600.00
02551            -240.00    12000.00
02552            -220.00    12000.00
02553            -260.00    12200.00
02554            -260.00    12400.00
02555            -320.00    12400.00
02556            -340.00    12600.00
02557            -320.00    12800.00
02558            -320.00    13000.00
02559            -380.00    13000.00
02560            -420.00    13200.00
02561            -420.00    13200.00
02562            -440.00    13400.00
02563            -460.00    13400.00
02564            -460.00    13600.00
02565            -480.00    13600.00
02566            -540.00    13800.00
02567            -580.00    13800.00
02568            -620.00    13800.00
02569            -640.00    14000.00
02570            -660.00    14000.00
02571            -660.00    14000.00
02572            -720.00    14200.00
02573            -800.00    14200.00
02574            -860.00    14200.00
02575            -900.00    14200.00
02576            -960.00    14200.00
02577           -1000.00    14400.00
02578           -1060.00    14200.00
02579           -1140.00    14600.00
02580           -1220.00    14400.00
02581           -1300.00    14600.00
02582           -1380.00    14600.00
02583           -1480.00    14600.00
02584           -1560.00    14400.00
02585           -1680.00    14400.00
02586           -1780.00    14600.00
02587           -1940.00    14400.00
02588           -2060.00    14200.00
02589           -2160.00    14200.00
02590           -2240.00    14200.00
02591           -2300.00    14200.00
02592           -2380.00    14200.00
02593           -2420.00    14200.00
02594           -2460.00    14200.00
02595           -2420.00    14200.00
02596           -2400.00    14000.00
02597           -2340.00    13800.00
02598           -2260.00    13800.00
02599           -2200.00    13800.00
02600           -2080.00    13800.00
02601           -1980.00    13600.00
02602           -1900.00    13400.00
02603           -1740.00    13400.00
02604           -1620.00    13400.00
02605           -1540.00    13200.00
02606           -1420.00    13200.00
02607           -1280.00    13000.00
02608           -1180.00    13000.00
02609           -1100.00    12600.00
02610           -1020.00    12600.00
02611            -960.00    12600.00
02612            -880.00    12400.00
02613            -800.00    12200.00
02614            -740.00    12200.00
02615            -700.00    12000.00
02616            -660.00    11600.00
02617            -580.00    11600.00
02618            -560.00    11400.00
02619            -520.00    11200.00
02620            -500.00    11000.00
02621            -460.00    10800.00
02622            -460.00    10800.00
02623            -400.00    10600.00
02624            -380.00    10400.00
02625            -360.00    10200.00
02626            -340.00    10000.00
02627            -340.00     9800.00
02628            -320.00     9600.00
02629            -320.00     9400.00
02630            -280.00     9200.00
02631            -260.00     9000.00
02632            -260.00     8600.00
02633            -260.00     8400.00
02634            -260.00     8200.00
02635            -240.00     8000.00
02636            -220.00     7800.00
02637            -220.00     7600.00
02638            -220.00     7400.00
02639            -220.00     7000.00
02640            -220.00     6800.00
02641            -180.00     6800.00
02642            -180.00     6400.00
02643            -180.00     6200.00
02644            -160.00     5800.00
02645            -160.00     5800.00
02646            -160.00     5400.00
02647            -160.00     5200.00
02648            -160.00     5000.00
02649            -160.00     4600.00
02650            -140.00     4400.00
02651            -120.00     4200.00
02652            -140.00     3800.00
02653            -160.00     3600.00
02654            -140.00     3400.00
02655            -140.00     3400.00
02656            -100.00     2800.00
02657            -120.00     2600.00
02658            -100.00     2400.00
02659            -100.00     2000.00
02660            -100.00     1800.00
02661            -100.00     1600.00
02662            -100.00     1200.00
02663             -80.00     1000.00
02664             -80.00      600.00
02665             -60.00      600.00
02666             -80.00      200.00
02667             -80.00     -200.00
02668             -60.00     -400.00
02669              60.00     -600.00
02670             160.00     -600.00
02671             140.00    -1200.00
02672              60.00    -1200.00
02673              20.00    -1600.00
02674              20.00    -1800.00
02675              80.00    -2000.00
02676             420.00    -2200.00
02677            1120.00    -2800.00
02678             800.00    -3200.00
02679            -400.00    -3400.00
02680           -1100.00    -3600.00
02681            -880.00    -3800.00
02682            -720.00    -3800.00
02683            -640.00    -4000.00
02684             340.00    -4600.00
02685             440.00    -4800.00
02686             380.00    -4600.00
02687             300.00    -5800.00
02688             -60.00    -5200.00
02689             280.00    -5400.00
02690             160.00    -6000.00
02691              60.00    -6200.00
02692             160.00    -6800.00
02693              20.00    -6400.00
02694             -80.00    -7200.00
02695             -20.00    -7000.00
02696             160.00    -7400.00
02697             -20.00    -7800.00
02698              20.00    -7800.00
02699             220.00    -8400.00
02700             120.00    -8200.00
02701              60.00    -9000.00
02702             100.00    -9000.00
02703             220.00    -8800.00
02704              80.00    -9400.00
02705              80.00    -9400.00
02706             160.00    -9400.00
02707             160.00    -9800.00
02708              80.00   -10000.00
02709             160.00   -10200.00
02710             180.00   -10200.00
02711             140.00   -10800.00
02712             220.00   -10800.00
02713             220.00   -11000.00
02714             180.00   -11400.00
02715             180.00   -11400.00
02716             240.00   -11400.00
02717             220.00   -11800.00
02718             220.00   -11800.00
02719             280.00   -11800.00
02720             300.00   -12200.00
02721             280.00   -12400.00
02722             300.00   -12400.00
02723             320.00   -12400.00
02724             320.00   -12600.00
02725             340.00   -13000.00
02726             400.00   -12800.00
02727             380.00   -13000.00
02728             380.00   -13200.00
02729             420.00   -13200.00
02730             480.00   -13400.00
02731             480.00   -13400.00
02732             540.00   -13600.00
02733             560.00   -13600.00
02734             560.00   -13800.00
02735             560.00   -14000.00
02736             620.00   -14000.00
02737             640.00   -14000.00
02738             700.00   -14000.00
02739             780.00   -14200.00
02740             800.00   -14200.00
02741             820.00   -14200.00
02742             860.00   -14200.00
02743             940.00   -14400.00
02744            1000.00   -14600.00
02745            1060.00   -14600.00
02746            1140.00   -14400.00
02747            1200.00   -14600.00
02748            1260.00   -14600.00
02749            1340.00   -14600.00
02750            1460.00   -14600.00
02751            1560.00   -14600.00
02752            1700.00   -14400.00
02753            1820.00   -14600.00
02754            1920.00   -14400.00
02755            2000.00   -14400.00
02756            2100.00   -14200.00
02757            2240.00   -14200.00
02758            2320.00   -14400.00
02759            2400.00   -14200.00
02760            2420.00   -14200.00
02761            2400.00   -14000.00
02762            2420.00   -14000.00
02763            2400.00   -14000.00
02764            2340.00   -14000.00
02765            2300.00   -13800.00
02766            2220.00   -13800.00
02767            2100.00   -13600.00
02768            1980.00   -13600.00
02769            1860.00   -13600.00
02770            1760.00   -13400.00
02771            1640.00   -13400.00
02772            1540.00   -13200.00
02773            1420.00   -13200.00
02774            1300.00   -13000.00
02775            1180.00   -13000.00
02776            1100.00   -12800.00
02777            1020.00   -12600.00
02778             960.00   -12400.00
02779             860.00   -12400.00
02780             820.00   -12200.00
02781             740.00   -12200.00
02782             660.00   -12000.00
02783             640.00   -11800.00
02784             580.00   -11600.00
02785             560.00   -11600.00
02786             520.00   -11400.00
02787             480.00   -11200.00
02788             440.00   -11000.00
02789             400.00   -10800.00
02790             400.00   -10600.00
02791             380.00   -10600.00
02792             380.00   -10400.00
02793             340.00   -10000.00
02794             320.00    -9800.00
02795             300.00    -9800.00
02796             260.00    -9400.00
02797             260.00    -9200.00
02798             260.00    -9000.00
02799             260.00    -9000.00
02800             240.00    -8600.00
02801             220.00    -8400.00
02802             220.00    -8200.00
02803             220.00    -7800.00
02804             200.00    -7600.00
02805             180.00    -7400.00
02806             180.00    -7200.00
02807             180.00    -7000.00
02808             160.00    -6600.00
02809             160.00    -6600.00
02810             160.00    -6200.00
02811             160.00    -6200.00
02812             160.00    -6000.00
02813             140.00    -5400.00
02814             140.00    -5400.00
02815             140.00    -5000.00
02816             120.00    -4800.00
02817             140.00    -4600.00
02818             140.00    -4200.00
02819             120.00    -3800.00
02820             100.00    -3800.00
02821             100.00    -3400.00
02822             100.00    -3000.00
02823             100.00    -3000.00
02824             100.00    -2600.00
02825              80.00    -2400.00
02826             120.00    -2200.00
02827              80.00    -1800.00
02828              80.00    -1600.00
02829              80.00    -1400.00
02830              80.00    -1000.00
02831              80.00     -800.00
02832              80.00     -400.00
02833              80.00     -200.00
02834              80.00      200.00
02835              80.00      200.00
02836             140.00      600.00
02837             240.00      600.00
02838             260.00     1000.00
02839             220.00     1200.00
02840             160.00     1400.00
02841             140.00     1800.00
02842             240.00     2000.00
02843             860.00     2400.00
02844            1500.00     2800.00
02845             560.00     3000.00
02846            -920.00     3200.00
02847           -1340.00     3400.00
02848           -1040.00     3800.00
02849            -860.00     4000.00
02850             480.00     4200.00
02851             660.00     4200.00
02852             360.00     5000.00
02853             260.00     4800.00
02854            -260.00     5000.00
02855             220.00     6000.00
02856               0.00     5400.00
02857             -20.00     6000.00
02858             260.00     6200.00
02859             -80.00     6400.00
02860            -160.00     6800.00
02861            -240.00     6600.00
02862             120.00     7600.00
02863            -100.00     7000.00
02864             -60.00     7600.00
02865              60.00     7800.00
02866             -80.00     8000.00
02867             -60.00     8400.00
02868            -140.00     8200.00
02869              20.00     9000.00
02870            -160.00     8600.00
02871             -60.00     9200.00
02872            -140.00     9400.00
02873            -100.00     9600.00
02874            -180.00     9800.00
02875            -100.00    10000.00
02876             -80.00    10400.00
02877            -160.00    10200.00
02878            -140.00    10600.00
02879            -180.00    10800.00
02880            -180.00    11000.00
02881            -220.00    11000.00
02882            -160.00    11400.00
02883            -240.00    11600.00
02884            -260.00    11600.00
02885            -260.00    12000.00
02886            -240.00    12000.00
02887            -260.00    12200.00
02888            -260.00    12400.00
02889            -300.00    12400.00
02890            -340.00    12600.00
02891            -340.00    12600.00
02892            -320.00    12800.00
02893            -380.00    13000.00
02894            -420.00    13000.00
02895            -420.00    13000.00
02896            -420.00    13200.00
02897            -460.00    13200.00
02898            -420.00    13400.00
02899            -480.00    13800.00
02900            -540.00    13800.00
02901            -580.00    13800.00
02902            -620.00    14000.00
02903            -640.00    13800.00
02904            -680.00    14000.00
02905            -660.00    14200.00
02906            -720.00    14000.00
02907            -800.00    14200.00
02908            -860.00    14200.00
02909            -880.00    14400.00
02910            -940.00    14200.00
02911            -980.00    14600.00
02912           -1020.00    14400.00
02913           -1120.00    14400.00
02914           -1220.00    14400.00
02915           -1300.00    14600.00
02916           -1380.00    14600.00
02917           -1440.00    14400.00
02918           -1520.00    14400.00
02919           -1600.00    14400.00
02920           -1760.00    14600.00
02921           -1920.00    14600.00
02922           -2060.00    14200.00
02923           -2160.00    14400.00
02924           -2240.00    14400.00
02925           -2260.00    14200.00
02926           -2340.00    14200.00
02927           -2400.00    14200.00
02928           -2460.00    14200.00
02929           -2460.00    14000.00
02930           -2440.00    14000.00
02931           -2400.00    14000.00
02932           -2300.00    14000.00
02933           -2220.00    13800.00
02934           -2140.00    13800.00
02935           -2020.00    13800.00
02936           -1920.00    13600.00
02937           -1780.00    13400.00
02938           -1660.00    13400.00
02939           -1540.00    13200.00
02940           -1440.00    13200.00
02941           -1340.00    13000.00
02942           -1240.00    13000.00
02943           -1120.00    12600.00
02944           -1040.00    12600.00
02945            -960.00    12600.00
02946            -880.00    12400.00
02947            -820.00    12200.00
02948            -780.00    12200.00
02949            -740.00    11800.00
02950            -660.00    11800.00
02951            -620.00    11600.00
02952            -580.00    11400.00
02953            -540.00    11400.00
02954            -500.00    11000.00
02955            -480.00    11000.00
02956            -480.00    10800.00
02957            -420.00    10600.00
02958            -400.00    10400.00
02959            -360.00    10200.00
02960            -340.00    10000.00
02961            -340.00    10000.00
02962            -340.00     9800.00
02963            -320.00     9400.00
02964            -300.00     9200.00
02965            -260.00     9200.00
02966            -260.00     8800.00
02967            -260.00     8600.00
02968            -260.00     8400.00
02969            -260.00     8200.00
02970            -260.00     7800.00
02971            -240.00     7600.00
02972            -220.00     7600.00
02973            -220.00     7400.00
02974            -180.00     7000.00
02975            -220.00     6600.00
02976            -180.00     6600.00
02977            -160.00     6200.00
02978            -180.00     6000.00
02979            -160.00     5800.00
02980            -160.00     5400.00
02981            -160.00     5400.00
02982            -160.00     5000.00
02983            -160.00     4800.00
02984            -160.00     4400.00
02985            -140.00     4200.00
02986            -140.00     4000.00
02987            -140.00     3600.00
02988            -140.00     3600.00
02989            -140.00     3200.00
02990            -140.00     3000.00
02991            -140.00     2600.00
02992            -120.00     2400.00
02993            -100.00     2200.00
02994            -100.00     1800.00
02995            -100.00     1600.00
02996            -100.00     1400.00
02997            -100.00     1000.00
02998             -60.00     1000.00
02999             -80.00      400.00
03000             -80.00      400.00
03001             -80.00        0.00
03002             -60.00     -400.00
03003              20.00     -600.00
03004             140.00     -800.00
03005             140.00    -1000.00
03006              80.00    -1200.00
03007              20.00    -1800.00
03008               0.00    -1800.00
03009              60.00    -2000.00
03010             280.00    -2200.00
03011             960.00    -2600.00
03012            1040.00    -3000.00
03013             -20.00    -3200.00
03014            -980.00    -3400.00
03015           -1000.00    -3600.00
03016            -700.00    -3800.00
03017            -720.00    -3800.00
03018              60.00    -4400.00
03019             560.00    -4800.00
03020             320.00    -4400.00
03021             400.00    -5400.00
03022             -40.00    -5600.00
03023             160.00    -5400.00
03024             260.00    -6000.00
03025              60.00    -6000.00
03026             160.00    -6600.00
03027              40.00    -6400.00
03028             -60.00    -6800.00
03029            -100.00    -7200.00
03030             140.00    -7000.00
03031              40.00    -7600.00
03032             -20.00    -7600.00
03033             220.00    -8200.00
03034             160.00    -8200.00
03035              60.00    -8600.00
03036              60.00    -9000.00
03037             200.00    -8600.00
03038             100.00    -9200.00
03039              60.00    -9400.00
03040             140.00    -9400.00
03041             160.00    -9800.00
03042             100.00   -10000.00
03043             140.00   -10200.00
03044             180.00   -10200.00
03045             140.00   -10600.00
03046             220.00   -10800.00
03047             240.00   -11000.00
03048             160.00   -11000.00
03049             140.00   -11400.00
03050             240.00   -11600.00
03051             240.00   -11400.00
03052             180.00   -11800.00
03053             240.00   -11800.00
03054             300.00   -12200.00
03055             260.00   -12200.00
03056             280.00   -12400.00
03057             340.00   -12400.00
03058             320.00   -12600.00
03059             320.00   -12800.00
03060             360.00   -13000.00
03061             400.00   -13000.00
03062             380.00   -13200.00
03063             400.00   -13200.00
03064             460.00   -13400.00
03065             480.00   -13400.00
03066             480.00   -13600.00
03067             540.00   -13800.00
03068             560.00   -13600.00
03069             580.00   -13800.00
03070             620.00   -13800.00
03071             660.00   -14000.00
03072             700.00   -14000.00
03073             720.00   -14200.00
03074             800.00   -14200.00
03075             800.00   -14200.00
03076             860.00   -14400.00
03077             920.00   -14400.00
03078             960.00   -14400.00
03079            1020.00   -14200.00
03080            1100.00   -14400.00
03081            1200.00   -14600.00
03082            1220.00   -14600.00
03083            1300.00   -14600.00
03084            1440.00   -14600.00
03085            1540.00   -14400.00
03086            1660.00   -14400.00
03087            1760.00   -14400.00
03088            1900.00   -14200.00
03089            1980.00   -14400.00
03090            2080.00   -14200.00
03091            2220.00   -14200.00
03092            2300.00   -14200.00
03093            2360.00   -14200.00
03094            2400.00   -14200.00
03095            2420.00   -14200.00
03096            2400.00   -14000.00
03097            2400.00   -14000.00
03098            2380.00   -13800.00
03099            2300.00   -13800.00
03100            2240.00   -13600.00
03101            2140.00   -13600.00
03102            2020.00   -13800.00
03103            1880.00   -13600.00
03104            1820.00   -13400.00
03105            1680.00   -13400.00
03106            1580.00   -13200.00
03107            1440.00   -13200.00
03108            1340.00   -13200.00
03109            1200.00   -13000.00
03110            1120.00   -13000.00
03111            1040.00   -12600.00
03112             960.00   -12600.00
03113             900.00   -12400.00
03114             820.00   -12200.00
03115             760.00   -12200.00
03116             660.00   -11800.00
03117             640.00   -11800.00
03118             580.00   -11600.00
03119             560.00   -11600.00
03120             520.00   -11400.00
03121             500.00   -11200.00
03122             460.00   -11000.00
03123             420.00   -11000.00
03124             400.00   -10600.00
03125             380.00   -10600.00
03126             380.00   -10200.00
03127             340.00   -10200.00
03128             320.00    -9800.00
03129             300.00    -9800.00
03130             300.00    -9400.00
03131             260.00    -9200.00
03132             300.00    -9200.00
03133             260.00    -9000.00
03134             260.00    -8600.00
03135             220.00    -8600.00
03136             220.00    -8200.00
03137             200.00    -8000.00
03138             220.00    -7800.00
03139             200.00    -7600.00
03140             180.00    -7200.00
03141             180.00    -7000.00
03142             180.00    -6800.00
03143             160.00    -6600.00
03144             160.00    -6200.00
03145             160.00    -6000.00
03146             160.00    -5800.00
03147             160.00    -5600.00
03148             140.00    -5200.00
03149             140.00    -5000.00
03150             140.00    -4800.00
03151             140.00    -4600.00
03152             140.00    -4400.00
03153             140.00    -4000.00
03154             100.00    -3800.00
03155             120.00    -3600.00
03156             100.00    -3400.00
03157             140.00    -3000.00
03158             100.00    -2800.00
03159             100.00    -2600.00
03160             100.00    -2200.00
03161              80.00    -2000.00
03162              80.00    -1800.00
03163              80.00    -1400.00
03164              80.00    -1200.00
03165              80.00     -800.00
03166              80.00     -600.00
03167              80.00     -400.00
03168              80.00     -200.00
03169              80.00      200.00
03170             100.00      600.00
03171             220.00      600.00
03172             260.00     1000.00
03173             220.00     1200.00
03174             160.00     1400.00
03175             140.00     1600.00
03176             180.00     2000.00
03177             580.00     2400.00
03178            1440.00     2800.00
03179             960.00     2800.00
03180            -540.00     3200.00
03181           -1360.00     3000.00
03182           -1080.00     3600.00
03183            -980.00     3800.00
03184              20.00     4200.00
03185             800.00     4200.00
03186             340.00     4600.00
03187             400.00     5000.00
03188            -180.00     4600.00
03189              60.00     6000.00
03190             160.00     5600.00
03191            -140.00     5800.00
03192             280.00     6200.00
03193               0.00     6000.00
03194            -100.00     7000.00
03195            -260.00     6600.00
03196              20.00     7400.00
03197              20.00     7400.00
03198            -140.00     7400.00
03199              80.00     7800.00
03200             -60.00     7800.00
03201             -20.00     8200.00
03202            -140.00     8400.00
03203               0.00     8800.00
03204            -100.00     9000.00
03205            -100.00     9000.00
03206            -100.00     9400.00
03207            -140.00     9600.00
03208            -140.00     9800.00
03209            -160.00     9800.00
03210             -60.00    10200.00
03211            -180.00    10200.00
03212            -140.00    10600.00
03213            -220.00    10600.00
03214            -180.00    11000.00
03215            -220.00    11000.00
03216            -160.00    11400.00
03217            -220.00    11600.00
03218            -260.00    11600.00
03219            -240.00    11800.00
03220            -240.00    12000.00
03221            -260.00    12200.00
03222            -260.00    12200.00
03223            -260.00    12400.00
03224            -340.00    12400.00
03225            -360.00    12600.00
03226            -340.00    13000.00
03227            -340.00    13200.00
03228            -380.00    13200.00
03229            -340.00    13000.00
03230            -400.00    13400.00
03231            -460.00    13400.00
03232            -460.00    13400.00
03233            -480.00    13400.00
03234            -540.00    13800.00
03235            -580.00    13800.00
03236            -580.00    13800.00
03237            -640.00    14000.00
03238            -660.00    14000.00
03239            -660.00    14000.00
03240            -700.00    14000.00
03241            -780.00    14200.00
03242            -840.00    14200.00
03243            -880.00    14200.00
03244            -900.00    14200.00
03245            -960.00    14400.00
03246           -1020.00    14200.00
03247           -1100.00    14400.00
03248           -1180.00    14400.00
03249           -1260.00    14200.00
03250           -1340.00    14600.00
03251           -1420.00    14600.00
03252           -1540.00    14400.00
03253           -1620.00    14600.00
03254           -1740.00    14400.00
03255           -1860.00    14200.00
03256           -1980.00    14200.00
03257           -2100.00    14200.00
03258           -2180.00    14400.00
03259           -2260.00    14200.00
03260           -2340.00    14400.00
03261           -2400.00    14200.00
03262           -2440.00    14200.00
03263           -2420.00    14000.00
03264           -2420.00    14000.00
03265           -2400.00    14000.00
03266           -2320.00    13800.00
03267           -2240.00    14000.00
03268           -2160.00    13800.00
03269           -2060.00    13800.00
03270           -1940.00    13600.00
03271           -1820.00    13400.00
03272           -1680.00    13400.00
03273           -1580.00    13400.00
03274           -1460.00    13200.00
03275           -1380.00    13200.00
03276           -1260.00    13000.00
03277           -1180.00    13000.00
03278           -1060.00    12600.00
03279            -980.00    12600.00
03280            -900.00    12600.00
03281            -840.00    12400.00
03282            -780.00    12200.00
03283            -740.00    12000.00
03284            -660.00    11800.00
03285            -620.00    12000.00
03286            -560.00    11600.00
03287            -540.00    11400.00
03288            -500.00    11400.00
03289            -500.00    11000.00
03290            -460.00    11000.00
03291            -440.00    10600.00
03292            -400.00    10600.00
03293            -380.00    10400.00
03294            -340.00    10000.00
03295            -340.00    10000.00
03296            -340.00     9800.00
03297            -320.00     9600.00
03298            -300.00     9200.00
03299            -260.00     9200.00
03300            -260.00     8800.00
03301            -260.00     8600.00
03302            -260.00     8400.00
03303            -260.00     8200.00
03304            -240.00     8200.00
03305            -220.00     7800.00
03306            -220.00     7600.00
03307            -240.00     7400.00
03308            -220.00     7000.00
03309            -220.00     6800.00
03310            -180.00     6600.00
03311            -160.00     6200.00
03312            -180.00     6000.00
03313            -160.00     6000.00
03314            -180.00     5600.00
03315            -180.00     5400.00
03316            -160.00     5200.00
03317            -160.00     4600.00
03318            -160.00     4600.00
03319            -140.00     4400.00
03320            -120.00     4200.00
03321            -140.00     3800.00
03322            -140.00     3400.00
03323            -140.00     3400.00
03324            -140.00     3000.00
03325            -120.00     2600.00
03326            -100.00     2600.00
03327            -100.00     2200.00
03328            -100.00     1800.00
03329            -100.00     1800.00
03330            -100.00     1400.00
03331            -100.00     1200.00
03332            -100.00     1000.00
03333            -100.00      600.00
03334            -100.00      400.00
03335             -80.00      200.00
03336             -60.00     -200.00
03337               0.00     -400.00
03338             100.00     -600.00
03339             160.00     -800.00
03340             100.00    -1000.00
03341              60.00    -1200.00
03342              20.00    -1600.00
03343              40.00    -1800.00
03344             160.00    -2200.00
03345             720.00    -2200.00
03346            1180.00    -2800.00
03347             340.00    -3200.00
03348            -780.00    -3400.00
03349           -1060.00    -3600.00
03350            -760.00    -3600.00
03351            -740.00    -3800.00
03352            -260.00    -4200.00
03353             560.00    -4800.00
03354             320.00    -4400.00
03355             420.00    -5000.00
03356              80.00    -5400.00
03357              20.00    -5200.00
03358             340.00    -6000.00
03359              60.00    -6000.00
03360             140.00    -6600.00
03361              80.00    -6600.00
03362             -20.00    -6600.00
03363            -100.00    -7400.00
03364              60.00    -6800.00
03365             140.00    -7600.00
03366             -60.00    -7600.00
03367             140.00    -7800.00
03368             180.00    -8200.00
03369              80.00    -8200.00
03370              40.00    -8800.00
03371             180.00    -8800.00
03372             160.00    -9200.00
03373              60.00    -9400.00
03374              80.00    -9400.00
03375             140.00    -9800.00
03376             140.00   -10000.00
03377             140.00   -10200.00
03378             220.00   -10200.00
03379             140.00   -10600.00
03380             140.00   -10600.00
03381             220.00   -10800.00
03382             220.00   -11000.00
03383             160.00   -11400.00
03384             180.00   -11400.00
03385             220.00   -11600.00
03386             200.00   -11800.00
03387             240.00   -12000.00
03388             300.00   -12200.00
03389             280.00   -12200.00
03390             260.00   -12200.00
03391             300.00   -12600.00
03392             320.00   -12600.00
03393             320.00   -12800.00
03394             340.00   -13000.00
03395             400.00   -13000.00
03396             380.00   -13200.00
03397             380.00   -13200.00
03398             460.00   -13200.00
03399             480.00   -13400.00
03400             500.00   -13600.00
03401             540.00   -13600.00
03402             560.00   -13600.00
03403             560.00   -13800.00
03404             580.00   -13800.00
03405             640.00   -13600.00
03406             680.00   -14000.00
03407             720.00   -14000.00
03408             800.00   -14200.00
03409             800.00   -14200.00
03410             820.00   -14200.00
03411             900.00   -14400.00
03412             960.00   -14200.00
03413            1020.00   -14400.00
03414            1100.00   -14600.00
03415            1180.00   -14200.00
03416            1220.00   -14600.00
03417            1280.00   -14400.00
03418            1420.00   -14400.00
03419            1500.00   -14400.00
03420            1620.00   -14600.00
03421            1740.00   -14400.00
03422            1860.00   -14600.00
03423            1960.00   -14600.00
03424            2080.00   -14600.00
03425            2160.00   -14200.00
03426            2260.00   -14200.00
03427            2320.00   -14400.00
03428            2400.00   -14200.00
03429            2420.00   -14200.00
03430            2420.00   -14000.00
03431            2400.00   -14000.00
03432            2380.00   -14000.00
03433            2340.00   -14000.00
03434            2240.00   -13800.00
03435            2160.00   -13600.00
03436            2060.00   -13800.00
03437            1920.00   -13600.00
03438            1820.00   -13400.00
03439            1700.00   -13400.00
03440            1580.00   -13400.00
03441            1460.00   -13200.00
03442            1360.00   -13000.00
03443            1260.00   -13000.00
03444            1140.00   -13000.00
03445            1060.00   -12600.00
03446             980.00   -12600.00
03447             900.00   -12400.00
03448             820.00   -12400.00
03449             780.00   -12200.00
03450             700.00   -12200.00
03451             640.00   -12000.00
03452             620.00   -11800.00
03453             580.00   -11600.00
03454             540.00   -11400.00
03455             500.00   -11400.00
03456             460.00   -11000.00
03457             420.00   -10800.00
03458             400.00   -10600.00
03459             380.00   -10600.00
03460             380.00   -10400.00
03461             340.00   -10200.00
03462             320.00   -10000.00
03463             300.00    -9800.00
03464             280.00    -9600.00
03465             260.00    -9400.00
03466             280.00    -9200.00
03467             260.00    -9000.00
03468             240.00    -8600.00
03469             240.00    -8600.00
03470             220.00    -8200.00
03471             220.00    -8200.00
03472             220.00    -7800.00
03473             180.00    -7600.00
03474             220.00    -7200.00
03475             180.00    -7000.00
03476             180.00    -7000.00
03477             160.00    -6600.00
03478             180.00    -6600.00
03479             160.00    -6200.00
03480             160.00    -6000.00
03481             160.00    -5800.00
03482             160.00    -5400.00
03483             140.00    -5200.00
03484             140.00    -5000.00
03485             140.00    -4600.00
03486             140.00    -4400.00
03487             140.00    -4200.00
03488             140.00    -3800.00
03489             120.00    -3800.00
03490             120.00    -3200.00
03491             100.00    -3000.00
03492             120.00    -2800.00
03493             100.00    -2600.00
03494             100.00    -2200.00
03495              80.00    -2000.00
03496              80.00    -1800.00
03497              80.00    -1400.00
03498              80.00    -1400.00
03499              80.00     -800.00
03500              80.00     -600.00
03501              80.00     -600.00
03502              80.00        0.00
03503              80.00      200.00
03504             100.00      400.00
03505             180.00      600.00
03506             260.00      800.00
03507             240.00     1200.00
03508             180.00     1400.00
03509             140.00     1600.00
03510             160.00     1800.00
03511             380.00     2200.00
03512            1220.00     2600.00
03513            1280.00     2800.00
03514             -80.00     3000.00
03515           -1240.00     3400.00
03516           -1220.00     3400.00
03517           -1040.00     4000.00
03518            -440.00     3800.00
03519             780.00     4200.00
03520             460.00     4400.00
03521             420.00     5000.00
03522               0.00     4600.00
03523            -160.00     5600.00
03524             280.00     5800.00
03525            -160.00     5600.00
03526             160.00     6200.00
03527             140.00     6000.00
03528            -100.00     6800.00
03529            -220.00     6600.00
03530            -100.00     7000.00
03531             140.00     7600.00
03532            -160.00     7000.00
03533              20.00     7800.00
03534             -60.00     7800.00
03535             -60.00     8200.00
03536            -140.00     8400.00
03537             -20.00     8600.00
03538               0.00     9000.00
03539            -160.00     9000.00
03540             -80.00     9400.00
03541            -180.00     9400.00
03542            -100.00     9800.00
03543            -180.00    10000.00
03544             -20.00    10000.00
03545            -120.00    10200.00
03546            -140.00    10600.00
03547            -180.00    10800.00
03548            -180.00    10800.00
03549            -180.00    11000.00
03550            -180.00    11200.00
03551            -180.00    11400.00
03552            -260.00    11600.00
03553            -260.00    12000.00
03554            -240.00    12000.00
03555            -240.00    12000.00
03556            -300.00    12200.00
03557            -260.00    12400.00
03558            -320.00    12400.00
03559            -340.00    12600.00
03560            -320.00    12800.00
03561            -320.00    13000.00
03562            -400.00    13000.00
03563            -420.00    13200.00
03564            -420.00    13200.00
03565            -420.00    13400.00
03566            -460.00    13400.00
03567            -460.00    13600.00
03568            -500.00    13800.00
03569            -580.00    13600.00
03570            -620.00    13800.00
03571            -640.00    13800.00
03572            -660.00    14000.00
03573            -680.00    14000.00
03574            -700.00    14200.00
03575            -740.00    14200.00
03576            -820.00    14000.00
03577            -860.00    14400.00
03578            -900.00    14200.00
03579            -980.00    14200.00
03580           -1020.00    14200.00
03581           -1060.00    14600.00
03582           -1140.00    14600.00
03583           -1260.00    14600.00
03584           -1300.00    14600.00
03585           -1380.00    14600.00
03586           -1520.00    14400.00
03587           -1580.00    14600.00
03588           -1680.00    14400.00
03589           -1820.00    14400.00
03590           -1980.00    14400.00
03591           -2060.00    14400.00
03592           -2180.00    14400.00
03593           -2260.00    14200.00
03594           -2320.00    14400.00
03595           -2380.00    14200.00
03596           -2420.00    14200.00
03597           -2440.00    14200.00
03598           -2420.00    14200.00
03599           -2400.00    14000.00
03600           -2340.00    14000.00
03601           -2260.00    13800.00
03602           -2180.00    13800.00
03603           -2080.00    13800.00
03604           -2000.00    13600.00
03605           -1860.00    13600.00
03606           -1740.00    13400.00
03607           -1600.00    13400.00
03608           -1500.00    13200.00
03609           -1380.00    13200.00
03610           -1280.00    13000.00
03611           -1180.00    12800.00
03612           -1080.00    13000.00
03613           -1000.00    12600.00
03614            -920.00    12600.00
03615            -860.00    12400.00
03616            -800.00    12400.00
03617            -740.00    12200.00
03618            -700.00    11800.00
03619            -640.00    11800.00
03620            -580.00    11600.00
03621            -540.00    11400.00
03622            -500.00    11400.00
03623            -480.00    11000.00
03624            -460.00    11000.00
03625            -420.00    10800.00
03626            -400.00    10600.00
03627            -400.00    10400.00
03628            -380.00    10000.00
03629            -340.00     9800.00
03630            -340.00     9800.00
03631            -320.00     9600.00
03632            -300.00     9400.00
03633            -300.00     9200.00
03634            -280.00     9000.00
03635            -260.00     8600.00
03636            -260.00     8400.00
03637            -260.00     8200.00
03638            -260.00     8200.00
03639            -240.00     7800.00
03640            -240.00     7600.00
03641            -220.00     7400.00
03642            -220.00     7000.00
03643            -220.00     6800.00
03644            -220.00     6600.00
03645            -180.00     6400.00
03646            -180.00     6200.00
03647            -180.00     5800.00
03648            -180.00     5800.00
03649            -180.00     5400.00
03650            -180.00     5200.00
03651            -160.00     5000.00
03652            -140.00     4600.00
03653            -140.00     4400.00
03654            -140.00     4200.00
03655            -160.00     3800.00
03656            -160.00     3600.00
03657            -160.00     3400.00
03658            -140.00     3200.00
03659            -120.00     2800.00
03660            -100.00     2600.00
03661            -100.00     2200.00
03662            -100.00     2000.00
03663            -100.00     1800.00
03664            -100.00     1400.00
03665             -80.00     1000.00
03666            -100.00     1000.00
03667            -100.00      800.00
03668             -80.00      600.00
03669            -100.00      200.00
03670             -80.00     -200.00
03671             -20.00     -400.00
03672              80.00     -600.00
03673             160.00    -1000.00
03674             140.00    -1200.00
03675              80.00    -1400.00
03676              20.00    -1600.00
03677              20.00    -1800.00
03678             100.00    -2000.00
03679             500.00    -2200.00
03680            1180.00    -2800.00
03681             720.00    -3000.00
03682            -500.00    -3400.00
03683           -1120.00    -3600.00
03684            -820.00    -3600.00
03685            -720.00    -3800.00
03686            -560.00    -4000.00
03687             420.00    -4600.00
03688             400.00    -4800.00
03689             380.00    -4600.00
03690             220.00    -5600.00
03691             -60.00    -5200.00
03692             300.00    -5800.00
03693             120.00    -6000.00
03694             140.00    -6200.00
03695             140.00    -6600.00
03696             -20.00    -6400.00
03697            -120.00    -7200.00
03698             -20.00    -7000.00
03699             160.00    -7600.00
03700             -20.00    -7800.00
03701              80.00    -7800.00
03702             220.00    -8200.00
03703              80.00    -8200.00
03704              20.00    -8800.00
03705             100.00    -8800.00
03706             180.00    -9000.00
03707              80.00    -9400.00
03708             100.00    -9400.00
03709             140.00    -9600.00
03710             100.00    -9800.00
03711              80.00   -10200.00
03712             160.00   -10000.00
03713             160.00   -10600.00
03714             140.00   -10800.00
03715             220.00   -11000.00
03716             220.00   -11000.00
03717             160.00   -11200.00
03718             180.00   -11600.00
03719             240.00   -11600.00
03720             200.00   -11600.00
03721             220.00   -11800.00
03722             300.00   -12200.00
03723             300.00   -12200.00
03724             280.00   -12400.00
03725             320.00   -12600.00
03726             320.00   -12600.00
03727             300.00   -12600.00
03728             340.00   -13000.00
03729             400.00   -12800.00
03730             400.00   -13200.00
03731             380.00   -13200.00
03732             420.00   -13200.00
03733             460.00   -13400.00
03734             480.00   -13600.00
03735             520.00   -13400.00
03736             560.00   -13600.00
03737             560.00   -13800.00
03738             580.00   -13800.00
03739             640.00   -13800.00
03740             660.00   -14000.00
03741             700.00   -14000.00
03742             780.00   -14000.00
03743             800.00   -14200.00
03744             820.00   -14200.00
03745             880.00   -14200.00
03746             960.00   -14200.00
03747            1020.00   -14400.00
03748            1060.00   -14600.00
03749            1140.00   -14600.00
03750            1200.00   -14400.00
03751            1280.00   -14600.00
03752            1360.00   -14600.00
03753            1480.00   -14600.00
03754            1580.00   -14600.00
03755            1700.00   -14600.00
03756            1820.00   -14400.00
03757            1920.00   -14400.00
03758            2020.00   -14600.00
03759            2140.00   -14200.00
03760            2240.00   -14400.00
03761            2320.00   -14400.00
03762            2400.00   -14200.00
03763            2420.00   -14200.00
03764            2420.00   -14200.00
03765            2400.00   -14000.00
03766            2400.00   -14200.00
03767            2340.00   -14000.00
03768            2300.00   -14000.00
03769            2180.00   -13600.00
03770            2080.00   -13600.00
03771            1980.00   -13600.00
03772            1840.00   -13400.00
03773            1740.00   -13400.00
03774            1620.00   -13400.00
03775            1500.00   -13200.00
03776            1400.00   -13000.00
03777            1280.00   -13000.00
03778            1180.00   -13000.00
03779            1100.00   -13000.00
03780            1020.00   -12600.00
03781             940.00   -12400.00
03782             860.00   -12200.00
03783             800.00   -12200.00
03784             720.00   -12200.00
03785             660.00   -12000.00
03786             620.00   -11800.00
03787             580.00   -11600.00
03788             540.00   -11400.00
03789             520.00   -11400.00
03790             480.00   -11000.00
03791             460.00   -11000.00
03792             400.00   -10800.00
03793             400.00   -10600.00
03794             380.00   -10200.00
03795             380.00   -10200.00
03796             340.00   -10000.00
03797             320.00    -9800.00
03798             300.00    -9600.00
03799             300.00    -9400.00
03800             260.00    -9200.00
03801             300.00    -9000.00
03802             260.00    -8800.00
03803             220.00    -8600.00
03804             220.00    -8400.00
03805             220.00    -8200.00
03806             220.00    -8000.00
03807             220.00    -7600.00
03808             220.00    -7400.00
03809             180.00    -7200.00
03810             180.00    -7000.00
03811             160.00    -6800.00
03812             160.00    -6400.00
03813             160.00    -6200.00
03814             160.00    -6000.00
03815             160.00    -5800.00
03816             140.00    -5400.00
03817             140.00    -5200.00
03818             140.00    -5000.00
03819             120.00    -4600.00
03820             140.00    -4400.00
03821             140.00    -4200.00
03822             140.00    -3800.00
03823             140.00    -3600.00
03824             140.00    -3400.00
03825             100.00    -3000.00
03826             100.00    -3000.00
03827             100.00    -2600.00
03828             100.00    -2400.00
03829             100.00    -2200.00
03830              80.00    -1800.00
03831              60.00    -1800.00
03832              80.00    -1400.00
03833              80.00    -1000.00
03834              80.00     -600.00
03835              60.00     -400.00
03836              80.00     -400.00
03837              80.00        0.00
03838              80.00      400.00
03839             140.00      400.00
03840             240.00      800.00
03841             260.00     1000.00
03842             220.00     1200.00
03843             160.00     1400.00
03844             140.00     1800.00
03845             260.00     2000.00
03846             940.00     2600.00
03847            1460.00     2800.00
03848             400.00     3000.00
03849           -1020.00     3200.00
03850           -1300.00     3400.00
03851           -1020.00     3800.00
03852            -800.00     4000.00
03853             560.00     4200.00
03854             620.00     4200.00
03855             360.00     5000.00
03856             200.00     4600.00
03857            -260.00     5200.00
03858             260.00     6000.00
03859             -20.00     5400.00
03860              20.00     6000.00
03861             240.00     6200.00
03862            -100.00     6600.00
03863            -160.00     6800.00
03864            -220.00     6600.00
03865             160.00     7600.00
03866            -100.00     7200.00
03867             -20.00     7600.00
03868              20.00     8000.00
03869             -80.00     8200.00
03870             -80.00     8400.00
03871            -100.00     8400.00
03872              40.00     9000.00
03873            -160.00     8800.00
03874             -60.00     9200.00
03875            -160.00     9400.00
03876            -100.00     9800.00
03877            -180.00    10000.00
03878             -80.00    10000.00
03879             -80.00    10400.00
03880            -160.00    10400.00
03881            -140.00    10600.00
03882            -180.00    10800.00
03883            -180.00    11000.00
03884            -220.00    11000.00
03885            -160.00    11400.00
03886            -240.00    11600.00
03887            -260.00    11600.00
03888            -240.00    12000.00
03889            -220.00    12000.00
03890            -260.00    12200.00
03891            -260.00    12200.00
03892            -300.00    12600.00
03893            -340.00    12600.00
03894            -340.00    12600.00
03895            -320.00    13000.00
03896            -380.00    13000.00
03897            -420.00    13200.00
03898            -420.00    13000.00
03899            -420.00    13200.00
03900            -460.00    13200.00
03901            -460.00    13400.00
03902            -480.00    13600.00
03903            -540.00    13800.00
03904            -580.00    13800.00
03905            -620.00    13800.00
03906            -660.00    13800.00
03907            -660.00    14000.00
03908            -700.00    14200.00
03909            -720.00    14200.00
03910            -780.00    14200.00
03911            -860.00    14200.00
03912            -900.00    14200.00
03913            -960.00    14200.00
03914           -1000.00    14200.00
03915           -1040.00    14400.00
03916           -1120.00    14400.00
03917           -1220.00    14200.00
03918           -1280.00    14400.00
03919           -1360.00    14600.00
03920           -1460.00    14400.00
03921           -1560.00    14600.00
03922           -1660.00    14600.00
03923           -1760.00    14600.00
03924           -1920.00    14200.00
03925           -2020.00    14400.00
03926           -2140.00    14400.00
03927           -2220.00    14600.00
03928           -2300.00    14200.00
03929           -2380.00    14200.00
03930           -2420.00    14200.00
03931           -2440.00    14200.00
03932           -2420.00    14000.00
03933           -2400.00    14200.00
03934           -2360.00    14000.00
03935           -2300.00    14000.00
03936           -2180.00    13800.00
03937           -2100.00    13800.00
03938           -2020.00    13600.00
03939           -1900.00    13600.00
03940           -1780.00    13400.00
03941           -1640.00    13400.00
03942           -1520.00    13200.00
03943           -1420.00    13200.00
03944           -1300.00    13000.00
03945           -1220.00    13000.00
03946           -1120.00    13000.00
03947           -1020.00    12600.00
03948            -940.00    12600.00
03949            -880.00    12400.00
03950            -800.00    12400.00
03951            -780.00    12200.00
03952            -700.00    12000.00
03953            -640.00    12000.00
03954            -580.00    11600.00
03955            -560.00    11400.00
03956            -540.00    11400.00
03957            -500.00    11000.00
03958            -480.00    11000.00
03959            -440.00    10800.00
03960            -400.00    10600.00
03961            -400.00    10400.00
03962            -380.00    10200.00
03963            -360.00    10000.00
03964            -340.00     9800.00
03965            -320.00     9800.00
03966            -320.00     9400.00
03967            -300.00     9200.00
03968            -300.00     9000.00
03969            -260.00     8600.00
03970            -260.00     8600.00
03971            -260.00     8400.00
03972            -260.00     8200.00
03973            -240.00     8000.00
03974            -220.00     7600.00
03975            -220.00     7400.00
03976            -220.00     7200.00
03977            -220.00     7000.00
03978            -180.00     6600.00
03979            -220.00     6600.00
03980            -180.00     6200.00
03981            -180.00     6000.00
03982            -160.00     5800.00
03983            -160.00     5400.00
03984            -180.00     5600.00
03985            -160.00     5000.00
03986            -160.00     4600.00
03987            -140.00     4400.00
03988            -140.00     4200.00
03989            -140.00     4000.00
03990            -140.00     3600.00
03991            -140.00     3400.00
03992            -160.00     3200.00
03993            -140.00     2800.00
03994            -100.00     2600.00
03995            -100.00     2400.00
03996            -100.00     2000.00
03997            -100.00     1800.00
03998            -100.00     1400.00
03999            -100.00     1400.00
04000            -100.00     1000.00
04001             -80.00      800.00
04002             -80.00      600.00
04003             -80.00      400.00
04004             -80.00        0.00
04005             -60.00     -200.00
04006              20.00     -600.00
04007             140.00     -600.00
04008             140.00    -1000.00
04009             100.00    -1200.00
04010              40.00    -1600.00
04011              20.00    -1800.00
04012              80.00    -2000.00
04013             320.00    -2200.00
04014            1020.00    -2600.00
04015             980.00    -3200.00
04016            -140.00    -3400.00
04017           -1040.00    -3600.00
04018            -960.00    -3600.00
04019            -700.00    -3800.00
04020            -700.00    -3800.00
04021             160.00    -4400.00
04022             540.00    -4800.00
04023             340.00    -4400.00
04024             340.00    -5400.00
04025             -60.00    -5400.00
04026             220.00    -5400.00
04027             220.00    -6000.00
04028              20.00    -6000.00
04029             160.00    -6800.00
04030               0.00    -6200.00
04031             -80.00    -7000.00
04032            -100.00    -7200.00
04033             160.00    -7200.00
04034              20.00    -7800.00
04035             -20.00    -7800.00
04036             180.00    -8200.00
04037             140.00    -8200.00
04038              40.00    -8600.00
04039              80.00    -9000.00
04040             220.00    -8800.00
04041             100.00    -9400.00
04042              60.00    -9400.00
04043             100.00    -9600.00
04044             140.00    -9800.00
04045              80.00   -10000.00
04046             160.00   -10200.00
04047             180.00   -10400.00
04048             140.00   -10800.00
04049             180.00   -10800.00
04050             220.00   -11000.00
04051             180.00   -11200.00
04052             160.00   -11400.00
04053             220.00   -11400.00
04054             240.00   -11600.00
04055             220.00   -11800.00
04056             240.00   -11800.00
04057             320.00   -12000.00
04058             280.00   -12200.00
04059             260.00   -12400.00
04060             320.00   -12400.00
04061             320.00   -12600.00
04062             340.00   -13000.00
04063             400.00   -12800.00
04064             400.00   -13000.00
04065             380.00   -13200.00
04066             420.00   -13200.00
04067             480.00   -13200.00
04068             480.00   -13400.00
04069             560.00   -13600.00
04070             560.00   -13400.00
04071             500.00   -13600.00
04072             580.00   -14000.00
04073             540.00   -14000.00
04074             620.00   -14000.00
04075             620.00   -14200.00
04076             780.00   -14000.00
04077             940.00   -14200.00
04078             940.00   -14200.00
04079             980.00   -14400.00
04080             960.00   -14400.00
04081             940.00   -14200.00
04082             880.00   -14400.00
04083             960.00   -14200.00
04084            1120.00   -14600.00
04085            1260.00   -14400.00
04086            1420.00   -14600.00
04087            1540.00   -14400.00
04088            1600.00   -14600.00
04089            1700.00   -14600.00
04090            1820.00   -14400.00
04091            1860.00   -14600.00
04092            1960.00   -14600.00
04093            2060.00   -14600.00
04094            2140.00   -14400.00
04095            2240.00   -14200.00
04096            2340.00   -14400.00
04097            2460.00   -14200.00
04098            2460.00   -14200.00
04099            2460.00   -14000.00
04100            2460.00   -14000.00
04101            2380.00   -14000.00
04102            2260.00   -14000.00
04103            2140.00   -13800.00
04104            2060.00   -13600.00
04105            1940.00   -13600.00
04106            1840.00   -13600.00
04107            1820.00   -13400.00
04108            1720.00   -13400.00
04109            1620.00   -13400.00
04110            1480.00   -13200.00
04111            1340.00   -13200.00
04112            1180.00   -13000.00
04113            1020.00   -12800.00
04114             960.00   -12600.00
04115             900.00   -12600.00
04116             900.00   -12400.00
04117             860.00   -12200.00
04118             800.00   -12200.00
04119             720.00   -12000.00
04120             660.00   -11800.00
04121             620.00   -11600.00
04122             540.00   -11600.00
04123             500.00   -11400.00
04124             480.00   -11200.00
04125             460.00   -11000.00
04126             420.00   -10800.00
04127             440.00   -10800.00
04128             400.00   -10600.00
04129             380.00   -10200.00
04130             340.00   -10200.00
04131             320.00    -9800.00
04132             300.00    -9600.00
04133             260.00    -9400.00
04134             280.00    -9200.00
04135             260.00    -9000.00
04136             280.00    -8800.00
04137             260.00    -8600.00
04138             240.00    -8400.00
04139             240.00    -8200.00
04140             220.00    -8000.00
04141             220.00    -7800.00
04142             220.00    -7200.00
04143             180.00    -7200.00
04144             180.00    -7000.00
04145             160.00    -6800.00
04146             160.00    -6800.00
04147             160.00    -6200.00
04148             160.00    -6200.00
04149             180.00    -5800.00
04150             160.00    -5600.00
04151             160.00    -5400.00
04152             140.00    -5000.00
04153             140.00    -4600.00
04154             140.00    -4600.00
04155             140.00    -4400.00
04156             140.00    -3800.00
04157             100.00    -3800.00
04158             100.00    -3400.00
04159              80.00    -3200.00
04160              80.00    -3000.00
04161             100.00    -2800.00
04162             100.00    -2600.00
04163             100.00    -2200.00
04164              80.00    -2000.00
04165              80.00    -1800.00
04166              60.00    -1400.00
04167              80.00    -1000.00
04168              60.00     -800.00
04169              80.00     -600.00
04170              80.00     -400.00
04171              60.00      200.00
04172              60.00      200.00
04173             140.00      400.00
04174             240.00      600.00
04175             260.00     1000.00
04176             240.00     1200.00
04177             160.00     1200.00
04178             140.00     1800.00
04179             200.00     1800.00
04180             640.00     2200.00
04181            1460.00     2800.00
04182             820.00     2800.00
04183            -640.00     3000.00
04184           -1340.00     3200.00
04185           -1060.00     3600.00
04186            -960.00     4200.00
04187             160.00     4200.00
04188             740.00     4200.00
04189             340.00     4800.00
04190             380.00     5000.00
04191            -260.00     4800.00
04192             100.00     5800.00
04193             140.00     5400.00
04194            -100.00     5800.00
04195             300.00     6400.00
04196             -20.00     6200.00
04197            -120.00     7000.00
04198            -240.00     6600.00
04199              60.00     7400.00
04200               0.00     7200.00
04201            -100.00     7400.00
04202              80.00     8000.00
04203             -80.00     7800.00
04204             -60.00     8400.00
04205            -160.00     8400.00
04206              60.00     9000.00
04207            -100.00     8800.00
04208             -80.00     9000.00
04209            -100.00     9600.00
04210            -140.00     9600.00
04211            -160.00     9800.00
04212            -160.00    10000.00
04213             -20.00    10400.00
04214            -160.00    10400.00
04215            -140.00    10600.00
04216            -180.00    10800.00
04217            -180.00    11000.00
04218            -240.00    11000.00
04219            -160.00    11400.00
04220            -220.00    11400.00
04221            -280.00    11600.00
04222            -240.00    11800.00
04223            -240.00    12000.00
04224            -260.00    12000.00
04225            -300.00    12200.00
04226            -300.00    12400.00
04227            -340.00    12400.00
04228            -340.00    12600.00
04229            -320.00    12800.00
04230            -340.00    13000.00
04231            -420.00    13000.00
04232            -420.00    13200.00
04233            -440.00    13400.00
04234            -440.00    13200.00
04235            -460.00    13400.00
04236            -460.00    13600.00
04237            -520.00    13400.00
04238            -560.00    13600.00
04239            -620.00    13800.00
04240            -640.00    14000.00
04241            -660.00    14000.00
04242            -700.00    13800.00
04243            -720.00    14200.00
04244            -780.00    14200.00
04245            -860.00    14200.00
04246            -900.00    14200.00
04247            -920.00    14400.00
04248            -960.00    14400.00
04249           -1020.00    14600.00
04250           -1100.00    14200.00
04251           -1220.00    14400.00
04252           -1280.00    14200.00
04253           -1340.00    14400.00
04254           -1420.00    14600.00
04255           -1540.00    14600.00
04256           -1620.00    14600.00
04257           -1740.00    14400.00
04258           -1860.00    14600.00
04259           -2000.00    14600.00
04260           -2100.00    14400.00
04261           -2200.00    14400.00
04262           -2300.00    14200.00
04263           -2340.00    14200.00
04264           -2380.00    14200.00
04265           -2420.00    14200.00
04266           -2420.00    14200.00
04267           -2420.00    14200.00
04268           -2400.00    14200.00
04269           -2320.00    13800.00
04270           -2220.00    13800.00
04271           -2140.00    13800.00
04272           -2040.00    13800.00
04273           -1940.00    13800.00
04274           -1820.00    13400.00
04275           -1680.00    13400.00
04276           -1580.00    13200.00
04277           -1440.00    13200.00
04278           -1340.00    13200.00
04279           -1220.00    13000.00
04280           -1140.00    13000.00
04281           -1060.00    12600.00
04282            -960.00    12600.00
04283            -900.00    12400.00
04284            -820.00    12200.00
04285            -780.00    12200.00
04286            -720.00    11800.00
04287            -700.00    12000.00
04288            -640.00    11600.00
04289            -580.00    11600.00
04290            -540.00    11400.00
04291            -500.00    11000.00
04292            -500.00    11000.00
04293            -460.00    10800.00
04294            -420.00    10600.00
04295            -400.00    10400.00
04296            -380.00    10200.00
04297            -360.00    10000.00
04298            -360.00    10000.00
04299            -320.00     9800.00
04300            -300.00     9400.00
04301            -320.00     9200.00
04302            -300.00     9200.00
04303            -260.00     8800.00
04304            -260.00     8600.00
04305            -260.00     8400.00
04306            -260.00     8200.00
04307            -240.00     7800.00
04308            -240.00     7800.00
04309            -220.00     7400.00
04310            -220.00     7400.00
04311            -220.00     7000.00
04312            -220.00     6600.00
04313            -180.00     6600.00
04314            -160.00     6200.00
04315            -180.00     6000.00
04316            -160.00     5800.00
04317            -180.00     5600.00
04318            -160.00     5200.00
04319            -160.00     5000.00
04320            -140.00     4800.00
04321            -160.00     4600.00
04322            -120.00     4400.00
04323            -140.00     4200.00
04324            -140.00     3800.00
04325            -140.00     3600.00
04326            -140.00     3400.00
04327            -140.00     3000.00
04328            -100.00     2800.00
04329            -100.00     2600.00
04330            -100.00     2200.00
04331            -100.00     1800.00
04332            -100.00     1800.00
04333             -80.00     1400.00
04334            -100.00     1200.00
04335             -80.00     1000.00
04336             -80.00      600.00
04337             -80.00      400.00
04338             -80.00      200.00
04339             -60.00     -200.00
04340               0.00     -400.00
04341             140.00     -600.00
04342             160.00     -800.00
04343             100.00    -1200.00
04344              60.00    -1400.00
04345              60.00    -1800.00
04346              60.00    -1800.00
04347             180.00    -2000.00
04348             800.00    -2400.00
04349            1140.00    -3000.00
04350             240.00    -3200.00
04351            -860.00    -3400.00
04352           -1060.00    -3800.00
04353            -740.00    -3800.00
04354            -780.00    -3800.00
04355            -220.00    -4200.00
04356             560.00    -5000.00
04357             300.00    -4600.00
04358             420.00    -5000.00
04359              60.00    -5600.00
04360              60.00    -5200.00
04361             320.00    -6000.00
04362              40.00    -5800.00
04363             140.00    -6600.00
04364              60.00    -6600.00
04365             -20.00    -6800.00
04366            -140.00    -7400.00
04367              80.00    -7000.00
04368             100.00    -7600.00
04369             -60.00    -7600.00
04370             160.00    -8200.00
04371             160.00    -8200.00
04372              60.00    -8400.00
04373              40.00    -9000.00
04374             180.00    -8600.00
04375             160.00    -9200.00
04376              60.00    -9400.00
04377              80.00    -9400.00
04378             140.00    -9600.00
04379             100.00    -9800.00
04380             140.00   -10000.00
04381             220.00   -10200.00
04382             140.00   -10600.00
04383             160.00   -10600.00
04384             220.00   -11000.00
04385             220.00   -11000.00
04386             160.00   -11400.00
04387             220.00   -11600.00
04388             240.00   -11600.00
04389             220.00   -11800.00
04390             220.00   -11800.00
04391             300.00   -12000.00
04392             300.00   -12200.00
04393             300.00   -12200.00
04394             320.00   -12400.00
04395             320.00   -12600.00
04396             320.00   -12600.00
04397             380.00   -12800.00
04398             400.00   -13000.00
04399             380.00   -13200.00
04400             400.00   -13200.00
04401             460.00   -13200.00
04402             480.00   -13400.00
04403             500.00   -13600.00
04404             560.00   -13600.00
04405             560.00   -13800.00
04406             560.00   -13600.00
04407             620.00   -14000.00
04408             640.00   -13800.00
04409             680.00   -14000.00
04410             740.00   -14200.00
04411             800.00   -14000.00
04412             820.00   -14200.00
04413             820.00   -14200.00
04414             900.00   -14400.00
04415             980.00   -14200.00
04416            1020.00   -14400.00
04417            1100.00   -14400.00
04418            1180.00   -14600.00
04419            1240.00   -14600.00
04420            1280.00   -14600.00
04421            1420.00   -14600.00
04422            1500.00   -14600.00
04423            1620.00   -14600.00
04424            1740.00   -14600.00
04425            1860.00   -14600.00
04426            1940.00   -14600.00
04427            2080.00   -14200.00
04428            2180.00   -14400.00
04429            2260.00   -14200.00
04430            2340.00   -14400.00
04431            2400.00   -14200.00
04432            2420.00   -14000.00
04433            2420.00   -14000.00
04434            2400.00   -14000.00
04435            2380.00   -14000.00
04436            2320.00   -14000.00
04437            2240.00   -13600.00
04438            2160.00   -13600.00
04439            2060.00   -13600.00
04440            1920.00   -13600.00
04441            1820.00   -13600.00
04442            1680.00   -13400.00
04443            1580.00   -13400.00
04444            1460.00   -13200.00
04445            1360.00   -13000.00
04446            1240.00   -13000.00
04447            1140.00   -12800.00
04448            1040.00   -12800.00
04449             980.00   -12600.00
04450             900.00   -12600.00
04451             860.00   -12400.00
04452             780.00   -12200.00
04453             700.00   -12200.00
04454             640.00   -11800.00
04455             620.00   -11800.00
04456             580.00   -11600.00
04457             540.00   -11400.00
04458             520.00   -11400.00
04459             480.00   -11000.00
04460             420.00   -11000.00
04461             400.00   -10800.00
04462             400.00   -10600.00
04463             380.00   -10200.00
04464             360.00   -10200.00
04465             320.00   -10000.00
04466             320.00    -9800.00
04467             300.00    -9800.00
04468             300.00    -9400.00
04469             260.00    -9000.00
04470             260.00    -9000.00
04471             260.00    -8600.00
04472             240.00    -8400.00
04473             220.00    -8200.00
04474             220.00    -8200.00
04475             220.00    -7800.00
04476             200.00    -7400.00
04477             200.00    -7400.00
04478             180.00    -7200.00
04479             180.00    -6800.00
04480             160.00    -6600.00
04481             160.00    -6400.00
04482             160.00    -6200.00
04483             160.00    -5800.00
04484             160.00    -5800.00
04485             140.00    -5400.00
04486             140.00    -5200.00
04487             140.00    -5000.00
04488             140.00    -4600.00
04489             140.00    -4400.00
04490             140.00    -4200.00
04491             120.00    -3800.00
04492             100.00    -3600.00
04493             100.00    -3400.00
04494             100.00    -3000.00
04495             100.00    -2800.00
04496             100.00    -2600.00
04497             100.00    -2400.00
04498             100.00    -2000.00
04499              80.00    -1800.00
04500              80.00    -1400.00
04501              80.00    -1200.00
04502              60.00     -800.00
04503              60.00     -600.00
04504              60.00     -400.00
04505              80.00     -200.00
04506              80.00      200.00
04507             100.00      400.00
04508             200.00      600.00
04509             240.00     1000.00
04510             240.00     1200.00
04511             180.00     1400.00
04512             160.00     1800.00
04513             160.00     1800.00
04514             420.00     2400.00
04515            1320.00     2600.00
04516            1200.00     2800.00
04517            -260.00     3000.00
04518           -1280.00     3200.00
04519           -1140.00     3600.00
04520           -1020.00     4000.00
04521            -300.00     4200.00
04522             820.00     4200.00
04523             400.00     4600.00
04524             380.00     5200.00
04525             -80.00     4600.00
04526             -80.00     5800.00
04527             280.00     5800.00
04528            -160.00     5600.00
04529             220.00     6200.00
04530             100.00     6000.00
04531            -100.00     6800.00
04532            -220.00     6600.00
04533             -60.00     7000.00
04534             100.00     7600.00
04535            -160.00     7000.00
04536              80.00     8000.00
04537             -40.00     7800.00
04538             -20.00     8400.00
04539            -140.00     8400.00
04540             -20.00     8600.00
04541             -60.00     9000.00
04542            -140.00     8800.00
04543             -60.00     9600.00
04544            -160.00     9400.00
04545            -100.00     9800.00
04546            -180.00    10000.00
04547             -40.00    10000.00
04548            -160.00    10200.00
04549            -140.00    10600.00
04550            -180.00    10800.00
04551            -180.00    10800.00
04552            -200.00    11000.00
04553            -220.00    11200.00
04554            -220.00    11400.00
04555            -300.00    11600.00
04556            -260.00    11800.00
04557            -240.00    12000.00
04558            -260.00    12200.00
04559            -280.00    12200.00
04560            -300.00    12400.00
04561            -340.00    12400.00
04562            -340.00    12600.00
04563            -320.00    12600.00
04564            -320.00    12800.00
04565            -400.00    13000.00
04566            -420.00    13000.00
04567            -420.00    13200.00
04568            -480.00    13400.00
04569            -440.00    13400.00
04570            -480.00    13600.00
04571            -500.00    13400.00
04572            -580.00    13800.00
04573            -580.00    13800.00
04574            -620.00    13800.00
04575            -660.00    14000.00
04576            -680.00    14000.00
04577            -700.00    14000.00
04578            -740.00    14200.00
04579            -800.00    14200.00
04580            -860.00    14200.00
04581            -900.00    14200.00
04582            -960.00    14400.00
04583           -1020.00    14400.00
04584           -1060.00    14400.00
04585           -1180.00    14600.00
04586           -1240.00    14600.00
04587           -1300.00    14600.00
04588           -1380.00    14600.00
04589           -1500.00    14400.00
04590           -1580.00    14400.00
04591           -1700.00    14600.00
04592           -1840.00    14400.00
04593           -1940.00    14200.00
04594           -2080.00    14400.00
04595           -2180.00    14400.00
04596           -2260.00    14200.00
04597           -2320.00    14400.00
04598           -2380.00    14400.00
04599           -2420.00    14200.00
04600           -2420.00    14200.00
04601           -2420.00    14200.00
04602           -2400.00    14000.00
04603           -2340.00    14000.00
04604           -2240.00    14000.00
04605           -2160.00    13800.00
04606           -2080.00    13800.00
04607           -1940.00    13800.00
04608           -1860.00    13600.00
04609           -1740.00    13600.00
04610           -1600.00    13400.00
04611           -1460.00    13400.00
04612           -1380.00    13200.00
04613           -1280.00    13000.00
04614           -1180.00    13000.00
04615           -1100.00    12600.00
04616           -1000.00    12600.00
04617            -900.00    12600.00
04618            -860.00    12400.00
04619            -800.00    12400.00
04620            -740.00    12000.00
04621            -700.00    11800.00
04622            -640.00    12000.00
04623            -580.00    11600.00
04624            -560.00    11600.00
04625            -500.00    11200.00
04626            -500.00    11000.00
04627            -480.00    10800.00
04628            -460.00    10600.00
04629            -420.00    10600.00
04630            -400.00    10200.00
04631            -360.00    10200.00
04632            -340.00    10000.00
04633            -340.00     9800.00
04634            -320.00     9600.00
04635            -320.00     9400.00
04636            -300.00     9200.00
04637            -260.00     8800.00
04638            -260.00     8600.00
04639            -260.00     8400.00
04640            -240.00     8200.00
04641            -260.00     8200.00
04642            -240.00     7800.00
04643            -220.00     7800.00
04644            -180.00     7400.00
04645            -220.00     7000.00
04646            -220.00     6800.00
04647            -200.00     6600.00
04648            -180.00     6400.00
04649            -180.00     6200.00
04650            -160.00     6000.00
04651            -160.00     5800.00
04652            -160.00     5400.00
04653            -180.00     5200.00
04654            -160.00     4800.00
04655            -140.00     4800.00
04656            -140.00     4400.00
04657            -100.00     4200.00
04658            -120.00     4000.00
04659            -140.00     3600.00
04660            -140.00     3400.00
04661            -140.00     3000.00
04662            -100.00     2800.00
04663            -120.00     2600.00
04664            -100.00     2200.00
04665            -100.00     2000.00
04666             -80.00     1800.00
04667            -100.00     1400.00
04668             -80.00     1200.00
04669             -80.00     1000.00
04670             -80.00      800.00
04671            -100.00      400.00
04672             -80.00      200.00
04673             -60.00     -200.00
04674             -20.00     -200.00
04675              80.00     -600.00
04676             160.00     -800.00
04677             140.00    -1000.00
04678              60.00    -1400.00
04679              20.00    -1800.00
04680              20.00    -1800.00
04681             140.00    -2000.00
04682             560.00    -2400.00
04683            1180.00    -2800.00
04684             620.00    -3400.00
04685            -620.00    -3400.00
04686           -1120.00    -3600.00
04687            -820.00    -3600.00
04688            -740.00    -3800.00
04689            -480.00    -4000.00
04690             480.00    -4800.00
04691             360.00    -4600.00
04692             400.00    -4800.00
04693             160.00    -5400.00
04694             -60.00    -5400.00
04695             320.00    -5800.00
04696             100.00    -6000.00
04697              80.00    -6400.00
04698             100.00    -6600.00
04699             -20.00    -6400.00
04700            -100.00    -7400.00
04701               0.00    -7000.00
04702             160.00    -7400.00
04703             -60.00    -7800.00
04704              80.00    -7800.00
04705             180.00    -8200.00
04706              80.00    -8200.00
04707              40.00    -8800.00
04708             140.00    -8600.00
04709             180.00    -9000.00
04710              60.00    -9400.00
04711              80.00    -9400.00
04712             140.00    -9800.00
04713             140.00    -9800.00
04714             100.00   -10200.00
04715             180.00   -10200.00
04716             160.00   -10400.00
04717             140.00   -10800.00
04718             180.00   -10800.00
04719             240.00   -11000.00
04720             160.00   -11400.00
04721             180.00   -11400.00
04722             240.00   -11400.00
04723             220.00   -11800.00
04724             220.00   -11800.00
04725             300.00   -12000.00
04726             300.00   -12200.00
04727             280.00   -12200.00
04728             300.00   -12400.00
04729             340.00   -12600.00
04730             320.00   -12600.00
04731             340.00   -13000.00
04732             400.00   -12800.00
04733             380.00   -13000.00
04734             380.00   -13200.00
04735             460.00   -13200.00
04736             480.00   -13200.00
04737             480.00   -13400.00
04738             540.00   -13600.00
04739             560.00   -13400.00
04740             560.00   -13800.00
04741             580.00   -13800.00
04742             640.00   -14000.00
04743             640.00   -14000.00
04744             700.00   -14000.00
04745             780.00   -14000.00
04746             800.00   -14200.00
04747             820.00   -14200.00
04748             880.00   -14400.00
04749             960.00   -14200.00
04750             980.00   -14400.00
04751            1040.00   -14600.00
04752            1140.00   -14200.00
04753            1200.00   -14600.00
04754            1260.00   -14400.00
04755            1360.00   -14600.00
04756            1500.00   -14600.00
04757            1580.00   -14400.00
04758            1700.00   -14600.00
04759            1820.00   -14400.00
04760            1920.00   -14600.00
04761            2020.00   -14600.00
04762            2140.00   -14200.00
04763            2240.00   -14400.00
04764            2320.00   -14600.00
04765            2380.00   -14200.00
04766            2420.00   -14200.00
04767            2420.00   -14200.00
04768            2400.00   -14200.00
04769            2380.00   -14000.00
04770            2340.00   -14000.00
04771            2260.00   -14000.00
04772            2180.00   -13600.00
04773            2080.00   -13600.00
04774            1960.00   -13600.00
04775            1840.00   -13400.00
04776            1740.00   -13400.00
04777            1600.00   -13400.00
04778            1520.00   -13400.00
04779            1380.00   -13000.00
04780            1280.00   -13000.00
04781            1180.00   -12800.00
04782            1080.00   -12600.00
04783            1020.00   -12600.00
04784             920.00   -12400.00
04785             860.00   -12400.00
04786             800.00   -12200.00
04787             720.00   -12000.00
04788             660.00   -12000.00
04789             620.00   -11800.00
04790             580.00   -11600.00
04791             540.00   -11400.00
04792             520.00   -11400.00
04793             480.00   -11000.00
04794             420.00   -11000.00
04795             420.00   -10800.00
04796             400.00   -10600.00
04797             380.00   -10200.00
04798             360.00   -10200.00
04799             320.00   -10000.00
04800             320.00    -9800.00
04801             300.00    -9600.00
04802             280.00    -9400.00
04803             280.00    -9200.00
04804             260.00    -9000.00
04805             260.00    -8800.00
04806             240.00    -8600.00
04807             220.00    -8200.00
04808             220.00    -8200.00
04809             200.00    -8000.00
04810             220.00    -7600.00
04811             180.00    -7200.00
04812             200.00    -7000.00
04813             160.00    -7000.00
04814             160.00    -6600.00
04815             160.00    -6400.00
04816             160.00    -6200.00
04817             160.00    -6000.00
04818             160.00    -5800.00
04819             140.00    -5400.00
04820             140.00    -5200.00
04821             100.00    -5000.00
04822             140.00    -4800.00
04823             140.00    -4600.00
04824             120.00    -4200.00
04825             140.00    -4000.00
04826             100.00    -3600.00
04827             100.00    -3400.00
04828             100.00    -3000.00
04829             100.00    -3000.00
04830              80.00    -2800.00
04831             100.00    -2400.00
04832             100.00    -2000.00
04833              80.00    -1800.00
04834              80.00    -1600.00
04835              80.00    -1400.00
04836              80.00     -800.00
04837              80.00     -800.00
04838              80.00     -600.00
04839              80.00     -200.00
04840              60.00      200.00
04841             100.00      400.00
04842             160.00      600.00
04843             240.00     1000.00
04844             240.00     1000.00
04845             200.00     1400.00
04846             140.00     1400.00
04847             160.00     1800.00
04848             300.00     2200.00
04849            1060.00     2600.00
04850            1440.00     2800.00
04851             240.00     3000.00
04852           -1100.00     3200.00
04853           -1280.00     3400.00
04854           -1020.00     4000.00
04855            -700.00     4200.00
04856             660.00     4200.00
04857             560.00     4400.00
04858             380.00     5000.00
04859             140.00     4600.00
04860            -240.00     5200.00
04861             300.00     5800.00
04862            -100.00     5400.00
04863              60.00     6200.00
04864             220.00     6200.00
04865            -100.00     6600.00
04866            -160.00     6800.00
04867            -180.00     6600.00
04868             140.00     7600.00
04869            -120.00     7000.00
04870               0.00     7800.00
04871              20.00     7800.00
04872             -60.00     8200.00
04873            -100.00     8400.00
04874            -100.00     8400.00
04875               0.00     9000.00
04876            -160.00     8600.00
04877             -80.00     9200.00
04878            -160.00     9400.00
04879            -140.00     9800.00
04880            -200.00    10000.00
04881             -80.00    10200.00
04882            -100.00    10200.00
04883            -160.00    10400.00
04884            -160.00    10800.00
04885            -180.00    10800.00
04886            -180.00    11000.00
04887            -220.00    11200.00
04888            -180.00    11400.00
04889            -260.00    11600.00
04890            -260.00    11800.00
04891            -240.00    12000.00
04892            -240.00    12200.00
04893            -280.00    12200.00
04894            -280.00    12400.00
04895            -320.00    12400.00
04896            -360.00    12600.00
04897            -340.00    13000.00
04898            -320.00    12800.00
04899            -380.00    13000.00
04900            -420.00    13200.00
04901            -420.00    13200.00
04902            -440.00    13400.00
04903            -460.00    13400.00
04904            -460.00    13600.00
04905            -480.00    13600.00
04906            -560.00    13800.00
04907            -620.00    13800.00
04908            -620.00    14000.00
04909            -660.00    14000.00
04910            -680.00    14200.00
04911            -660.00    14200.00
04912            -720.00    14200.00
04913            -800.00    14200.00
04914            -860.00    14200.00
04915            -900.00    14200.00
04916            -960.00    14400.00
04917            -980.00    14400.00
04918           -1040.00    14400.00
04919           -1120.00    14600.00
04920           -1220.00    14400.00
04921           -1280.00    14600.00
04922           -1360.00    14600.00
04923           -1460.00    14600.00
04924           -1540.00    14600.00
04925           -1660.00    14400.00
04926           -1780.00    14600.00
04927           -1920.00    14600.00
04928           -2020.00    14200.00
04929           -2140.00    14400.00
04930           -2260.00    14200.00
04931           -2300.00    14200.00
04932           -2380.00    14200.00
04933           -2420.00    14200.00
04934           -2440.00    14200.00
04935           -2440.00    14400.00
04936           -2400.00    14000.00
04937           -2380.00    14000.00
04938           -2260.00    14000.00
04939           -2180.00    13800.00
04940           -2140.00    13800.00
04941           -2020.00    13600.00
04942           -1900.00    13600.00
04943           -1760.00    13400.00
04944           -1620.00    13400.00
04945           -1520.00    13200.00
04946           -1420.00    13200.00
04947           -1320.00    13000.00
04948           -1220.00    13000.00
04949           -1120.00    13000.00
04950           -1020.00    12600.00
04951            -960.00    12600.00
04952            -880.00    12400.00
04953            -820.00    12400.00
04954            -780.00    12000.00
04955            -720.00    11800.00
04956            -640.00    11800.00
04957            -580.00    11600.00
04958            -560.00    11400.00
04959            -540.00    11400.00
04960            -500.00    11000.00
04961            -480.00    11000.00
04962            -460.00    10800.00
04963            -400.00    10600.00
04964            -380.00    10400.00
04965            -380.00    10200.00
04966            -360.00    10200.00
04967            -340.00     9800.00
04968            -320.00     9800.00
04969            -320.00     9400.00
04970            -300.00     9200.00
04971            -260.00     9000.00
04972            -260.00     8800.00
04973            -260.00     8400.00
04974            -260.00     8400.00
04975            -240.00     8200.00
04976            -240.00     7800.00
04977            -220.00     7600.00
04978            -220.00     7400.00
04979            -180.00     7400.00
04980            -220.00     7000.00
04981            -220.00     6600.00
04982            -180.00     6600.00
04983            -180.00     6200.00
04984            -160.00     6000.00
04985            -140.00     5800.00
04986            -160.00     5600.00
04987            -200.00     5200.00
04988            -180.00     5000.00
04989            -140.00     4600.00
04990            -100.00     4400.00
04991            -120.00     4200.00
04992            -120.00     4000.00
04993            -140.00     3800.00
04994            -160.00     3400.00
04995            -140.00     3200.00
04996            -100.00     3000.00
04997            -100.00     2600.00
04998            -120.00     2400.00
04999            -120.00     2200.00
05000            -100.00     2000.00
