Unit:(mV)
                     CH1         CH2
Frequency              ? 299.115 kHz
00001             320.00    -2200.00
00002            1000.00    -2600.00
00003            1000.00    -3000.00
00004            -160.00    -3200.00
00005            -960.00    -3400.00
00006            -840.00    -3600.00
00007            -600.00    -4000.00
00008            -680.00    -3800.00
00009             160.00    -4400.00
00010             520.00    -5000.00
00011             280.00    -4400.00
00012             440.00    -5400.00
00013              40.00    -5200.00
00014             240.00    -5400.00
00015             280.00    -6200.00
00016             160.00    -5800.00
00017             280.00    -6600.00
00018              40.00    -6600.00
00019              40.00    -7000.00
00020             120.00    -7000.00
00021             160.00    -7400.00
00022             120.00    -7800.00
00023             160.00    -7200.00
00024             280.00    -8400.00
00025             200.00    -8200.00
00026             280.00    -8600.00
00027             200.00    -8600.00
00028             280.00    -8800.00
00029             280.00    -9200.00
00030             200.00    -9200.00
00031             160.00    -9600.00
00032             280.00    -9400.00
00033             320.00    -9800.00
00034             280.00   -10000.00
00035             320.00   -10200.00
00036             360.00   -10600.00
00037             320.00   -10800.00
00038             360.00   -11000.00
00039             400.00   -11000.00
00040             360.00   -11400.00
00041             400.00   -11400.00
00042             400.00   -11600.00
00043             400.00   -11800.00
00044             440.00   -11800.00
00045             440.00   -12200.00
00046             480.00   -12200.00
00047             440.00   -12200.00
00048             480.00   -12400.00
00049             480.00   -12600.00
00050             520.00   -12600.00
00051             560.00   -12800.00
00052             600.00   -13000.00
00053             600.00   -13200.00
00054             600.00   -13200.00
00055             600.00   -13400.00
00056             680.00   -13400.00
00057             680.00   -13400.00
00058             720.00   -13600.00
00059             760.00   -13800.00
00060             760.00   -13800.00
00061             760.00   -13600.00
00062             840.00   -14000.00
00063             920.00   -13800.00
00064             920.00   -14000.00
00065             960.00   -14000.00
00066            1000.00   -14000.00
00067            1080.00   -14200.00
00068            1120.00   -14200.00
00069            1160.00   -14200.00
00070            1240.00   -14200.00
00071            1320.00   -14400.00
00072            1400.00   -14200.00
00073            1440.00   -14200.00
00074            1520.00   -14600.00
00075            1600.00   -14400.00
00076            1720.00   -14600.00
00077            1840.00   -14400.00
00078            1920.00   -14600.00
00079            2040.00   -14200.00
00080            2160.00   -14200.00
00081            2240.00   -14400.00
00082            2360.00   -14200.00
00083            2440.00   -14200.00
00084            2560.00   -14200.00
00085            2560.00   -14000.00
00086            2560.00   -14200.00
00087            2560.00   -14000.00
00088            2560.00   -14000.00
00089            2560.00   -13600.00
00090            2440.00   -13800.00
00091            2400.00   -13600.00
00092            2280.00   -13600.00
00093            2240.00   -13800.00
00094            2080.00   -13600.00
00095            1920.00   -13400.00
00096            1880.00   -13200.00
00097            1760.00   -13200.00
00098            1640.00   -13000.00
00099            1480.00   -13000.00
00100            1400.00   -12800.00
00101            1320.00   -12800.00
00102            1240.00   -12600.00
00103            1160.00   -12400.00
00104            1080.00   -12400.00
00105            1000.00   -12200.00
00106             960.00   -12000.00
00107             840.00   -11800.00
00108             760.00   -11800.00
00109             800.00   -11600.00
00110             680.00   -11600.00
00111             680.00   -11400.00
00112             640.00   -11200.00
00113             640.00   -10800.00
00114             600.00   -10800.00
00115             600.00   -10600.00
00116             520.00   -10400.00
00117             520.00   -10000.00
00118             520.00   -10000.00
00119             480.00    -9800.00
00120             440.00    -9600.00
00121             440.00    -9400.00
00122             440.00    -9200.00
00123             400.00    -9000.00
00124             440.00    -8800.00
00125             360.00    -8600.00
00126             320.00    -8400.00
00127             320.00    -8200.00
00128             320.00    -8000.00
00129             320.00    -7800.00
00130             320.00    -7400.00
00131             320.00    -7200.00
00132             320.00    -7000.00
00133             280.00    -6800.00
00134             280.00    -6600.00
00135             240.00    -6200.00
00136             280.00    -6000.00
00137             280.00    -5800.00
00138             240.00    -5600.00
00139             200.00    -5400.00
00140             200.00    -5200.00
00141             160.00    -4600.00
00142             200.00    -4600.00
00143             200.00    -4200.00
00144             160.00    -4000.00
00145             200.00    -3800.00
00146             160.00    -3600.00
00147             160.00    -3400.00
00148             120.00    -3000.00
00149             160.00    -2600.00
00150             160.00    -2600.00
00151             160.00    -2200.00
00152             120.00    -1800.00
00153             120.00    -1800.00
00154             120.00    -1200.00
00155             120.00    -1000.00
00156             120.00     -800.00
00157             120.00     -600.00
00158              80.00     -400.00
00159             120.00     -200.00
00160              40.00      400.00
00161             120.00      600.00
00162             200.00      600.00
00163             280.00     1000.00
00164             200.00     1200.00
00165             160.00     1400.00
00166             120.00     1800.00
00167             200.00     1800.00
00168             640.00     2600.00
00169            1400.00     2800.00
00170             800.00     3000.00
00171            -640.00     3000.00
00172           -1320.00     3400.00
00173           -1080.00     3600.00
00174           -1000.00     3800.00
00175             120.00     4000.00
00176             760.00     4400.00
00177             120.00     4600.00
00178             280.00     4800.00
00179            -120.00     5000.00
00180             -40.00     6000.00
00181               0.00     5200.00
00182               0.00     5800.00
00183             160.00     6200.00
00184            -200.00     6000.00
00185             -40.00     7000.00
00186            -320.00     6600.00
00187            -160.00     7200.00
00188             -40.00     7400.00
00189            -160.00     7600.00
00190            -120.00     7800.00
00191            -160.00     7800.00
00192            -120.00     8400.00
00193            -320.00     8200.00
00194            -120.00     8800.00
00195            -200.00     9000.00
00196            -240.00     9000.00
00197            -280.00     9400.00
00198            -280.00     9400.00
00199            -280.00     9800.00
00200            -280.00     9800.00
00201            -200.00    10200.00
00202            -320.00    10200.00
00203            -320.00    10600.00
00204            -360.00    10800.00
00205            -320.00    11000.00
00206            -360.00    11000.00
00207            -320.00    11200.00
00208            -440.00    11400.00
00209            -480.00    11600.00
00210            -360.00    12000.00
00211            -440.00    11800.00
00212            -440.00    12200.00
00213            -440.00    12200.00
00214            -520.00    12400.00
00215            -520.00    12400.00
00216            -480.00    12600.00
00217            -520.00    12600.00
00218            -520.00    12800.00
00219            -600.00    13000.00
00220            -600.00    13200.00
00221            -640.00    13200.00
00222            -640.00    13400.00
00223            -640.00    13400.00
00224            -680.00    13400.00
00225            -720.00    13600.00
00226            -760.00    13800.00
00227            -800.00    13800.00
00228            -840.00    14000.00
00229            -840.00    14000.00
00230            -840.00    14000.00
00231            -920.00    14200.00
00232            -960.00    14200.00
00233           -1000.00    14400.00
00234           -1080.00    14200.00
00235           -1160.00    14200.00
00236           -1160.00    14400.00
00237           -1200.00    14400.00
00238           -1280.00    14400.00
00239           -1360.00    14400.00
00240           -1480.00    14400.00
00241           -1560.00    14400.00
00242           -1600.00    14600.00
00243           -1720.00    14600.00
00244           -1800.00    14400.00
00245           -1920.00    14200.00
00246           -2040.00    14400.00
00247           -2120.00    14200.00
00248           -2240.00    14200.00
00249           -2400.00    14400.00
00250           -2440.00    14200.00
00251           -2560.00    14200.00
00252           -2600.00    14200.00
00253           -2600.00    14200.00
00254           -2600.00    14000.00
00255           -2600.00    14000.00
00256           -2600.00    13800.00
00257           -2520.00    13800.00
00258           -2400.00    13800.00
00259           -2360.00    13800.00
00260           -2240.00    13800.00
00261           -2120.00    13600.00
00262           -2040.00    13400.00
00263           -1880.00    13400.00
00264           -1800.00    13400.00
00265           -1640.00    13200.00
00266           -1600.00    13000.00
00267           -1480.00    13000.00
00268           -1320.00    12800.00
00269           -1280.00    12600.00
00270           -1160.00    12600.00
00271           -1080.00    12400.00
00272           -1040.00    12400.00
00273            -960.00    12200.00
00274            -920.00    11800.00
00275            -840.00    12000.00
00276            -840.00    11600.00
00277            -760.00    11400.00
00278            -680.00    11200.00
00279            -680.00    11000.00
00280            -640.00    11000.00
00281            -640.00    10800.00
00282            -600.00    10800.00
00283            -520.00    10400.00
00284            -520.00    10200.00
00285            -520.00     9800.00
00286            -520.00    10000.00
00287            -520.00     9800.00
00288            -480.00     9400.00
00289            -440.00     9200.00
00290            -440.00     9200.00
00291            -440.00     8800.00
00292            -360.00     8600.00
00293            -360.00     8400.00
00294            -360.00     8200.00
00295            -360.00     8000.00
00296            -360.00     7800.00
00297            -320.00     7600.00
00298            -320.00     7400.00
00299            -320.00     7000.00
00300            -320.00     6800.00
00301            -320.00     6600.00
00302            -280.00     6200.00
00303            -280.00     6000.00
00304            -280.00     5800.00
00305            -200.00     5600.00
00306            -280.00     5400.00
00307            -240.00     5000.00
00308            -240.00     4600.00
00309            -200.00     4600.00
00310            -200.00     4400.00
00311            -200.00     4000.00
00312            -200.00     3800.00
00313            -200.00     3600.00
00314            -200.00     3400.00
00315            -160.00     3000.00
00316            -160.00     2800.00
00317            -160.00     2400.00
00318            -160.00     2200.00
00319            -160.00     2000.00
00320            -160.00     1400.00
00321            -160.00     1400.00
00322            -160.00     1200.00
00323            -120.00     1000.00
00324            -120.00      600.00
00325            -120.00      200.00
00326            -120.00        0.00
00327             -40.00     -200.00
00328             -40.00     -400.00
00329             120.00     -600.00
00330             120.00    -1000.00
00331             120.00    -1200.00
00332              40.00    -1600.00
00333              40.00    -1800.00
00334              40.00    -1800.00
00335             200.00    -2200.00
00336             760.00    -2600.00
00337            1160.00    -3000.00
00338             280.00    -3200.00
00339            -800.00    -3400.00
00340            -960.00    -3600.00
00341            -640.00    -3600.00
00342            -760.00    -4000.00
00343            -160.00    -4200.00
00344             600.00    -4800.00
00345             280.00    -4400.00
00346             440.00    -5200.00
00347             160.00    -5600.00
00348             120.00    -5200.00
00349             360.00    -6000.00
00350             160.00    -5800.00
00351             320.00    -6400.00
00352             120.00    -6600.00
00353              40.00    -6800.00
00354              80.00    -7200.00
00355             120.00    -7000.00
00356             120.00    -7800.00
00357             120.00    -7600.00
00358             320.00    -8000.00
00359             200.00    -8400.00
00360             200.00    -8200.00
00361             200.00    -8800.00
00362             280.00    -8600.00
00363             280.00    -9200.00
00364             280.00    -9200.00
00365             200.00    -9400.00
00366             200.00    -9600.00
00367             320.00    -9800.00
00368             280.00   -10200.00
00369             320.00   -10200.00
00370             320.00   -10600.00
00371             320.00   -10600.00
00372             320.00   -10800.00
00373             360.00   -11000.00
00374             360.00   -11000.00
00375             360.00   -11400.00
00376             360.00   -11600.00
00377             400.00   -11600.00
00378             440.00   -11800.00
00379             440.00   -12000.00
00380             480.00   -12200.00
00381             440.00   -12400.00
00382             480.00   -12400.00
00383             480.00   -12600.00
00384             520.00   -12600.00
00385             520.00   -12800.00
00386             520.00   -13000.00
00387             560.00   -13200.00
00388             600.00   -13200.00
00389             640.00   -13200.00
00390             640.00   -13400.00
00391             680.00   -13400.00
00392             760.00   -13600.00
00393             760.00   -13600.00
00394             760.00   -13800.00
00395             800.00   -13800.00
00396             800.00   -14000.00
00397             840.00   -14000.00
00398             920.00   -14000.00
00399             960.00   -14200.00
00400             960.00   -14200.00
00401            1040.00   -14200.00
00402            1120.00   -14200.00
00403            1080.00   -14200.00
00404            1240.00   -14400.00
00405            1280.00   -14400.00
00406            1320.00   -14200.00
00407            1400.00   -14200.00
00408            1480.00   -14400.00
00409            1560.00   -14400.00
00410            1720.00   -14600.00
00411            1800.00   -14400.00
00412            1920.00   -14400.00
00413            2040.00   -14200.00
00414            2120.00   -14400.00
00415            2240.00   -14200.00
00416            2360.00   -14200.00
00417            2400.00   -14200.00
00418            2520.00   -14200.00
00419            2560.00   -14200.00
00420            2600.00   -14200.00
00421            2600.00   -14000.00
00422            2560.00   -14000.00
00423            2560.00   -13800.00
00424            2520.00   -13800.00
00425            2400.00   -13600.00
00426            2360.00   -13800.00
00427            2240.00   -13600.00
00428            2080.00   -13600.00
00429            2000.00   -13400.00
00430            1880.00   -13400.00
00431            1800.00   -13400.00
00432            1640.00   -13000.00
00433            1560.00   -13000.00
00434            1440.00   -13000.00
00435            1320.00   -12600.00
00436            1280.00   -12600.00
00437            1160.00   -12400.00
00438            1080.00   -12400.00
00439            1040.00   -12400.00
00440             960.00   -12000.00
00441             880.00   -12000.00
00442             800.00   -11800.00
00443             760.00   -11800.00
00444             760.00   -11400.00
00445             680.00   -11400.00
00446             680.00   -11000.00
00447             640.00   -11000.00
00448             600.00   -10800.00
00449             520.00   -10600.00
00450             520.00   -10600.00
00451             480.00   -10200.00
00452             480.00   -10200.00
00453             480.00   -10000.00
00454             440.00    -9800.00
00455             440.00    -9400.00
00456             440.00    -9200.00
00457             360.00    -9000.00
00458             400.00    -9000.00
00459             360.00    -8600.00
00460             360.00    -8200.00
00461             320.00    -8400.00
00462             320.00    -8200.00
00463             320.00    -7800.00
00464             320.00    -7600.00
00465             320.00    -7200.00
00466             280.00    -7000.00
00467             280.00    -6800.00
00468             280.00    -6600.00
00469             240.00    -6400.00
00470             280.00    -6200.00
00471             280.00    -5800.00
00472             240.00    -5800.00
00473             200.00    -5400.00
00474             160.00    -5000.00
00475             200.00    -5000.00
00476             200.00    -4600.00
00477             160.00    -4200.00
00478             200.00    -4200.00
00479             160.00    -3800.00
00480             200.00    -3600.00
00481             160.00    -3200.00
00482             160.00    -3000.00
00483             160.00    -2800.00
00484             160.00    -2600.00
00485             120.00    -2400.00
00486             120.00    -1800.00
00487             120.00    -1800.00
00488             120.00    -1600.00
00489             120.00    -1200.00
00490             120.00     -800.00
00491              80.00     -600.00
00492             120.00     -400.00
00493             120.00        0.00
00494              40.00      200.00
00495             120.00      400.00
00496             200.00      600.00
00497             280.00     1000.00
00498             240.00     1200.00
00499             160.00     1200.00
00500             120.00     1800.00
00501             160.00     1800.00
00502             400.00     2200.00
00503            1240.00     2600.00
00504            1160.00     3000.00
00505            -200.00     3000.00
00506           -1280.00     3200.00
00507           -1080.00     3400.00
00508           -1080.00     3800.00
00509            -400.00     4000.00
00510             800.00     4200.00
00511             280.00     4400.00
00512             200.00     5000.00
00513               0.00     4600.00
00514            -200.00     5800.00
00515              40.00     5400.00
00516            -160.00     5600.00
00517             160.00     6600.00
00518            -160.00     5800.00
00519            -160.00     6800.00
00520            -200.00     6800.00
00521            -320.00     7000.00
00522             -40.00     7400.00
00523            -160.00     7400.00
00524            -120.00     7800.00
00525            -200.00     7600.00
00526             -80.00     8600.00
00527            -280.00     8200.00
00528            -200.00     8400.00
00529            -160.00     9000.00
00530            -240.00     9000.00
00531            -200.00     9400.00
00532            -280.00     9400.00
00533            -280.00    10000.00
00534            -360.00     9800.00
00535            -200.00    10200.00
00536            -320.00    10200.00
00537            -320.00    10400.00
00538            -320.00    10800.00
00539            -320.00    10600.00
00540            -360.00    11000.00
00541            -360.00    11000.00
00542            -320.00    11400.00
00543            -440.00    11600.00
00544            -360.00    11800.00
00545            -440.00    12000.00
00546            -440.00    12000.00
00547            -440.00    12200.00
00548            -480.00    12400.00
00549            -520.00    12400.00
00550            -520.00    12600.00
00551            -520.00    12800.00
00552            -520.00    12800.00
00553            -520.00    13000.00
00554            -560.00    13000.00
00555            -640.00    13400.00
00556            -640.00    13400.00
00557            -640.00    13400.00
00558            -640.00    13400.00
00559            -680.00    13600.00
00560            -760.00    13800.00
00561            -800.00    13600.00
00562            -840.00    13800.00
00563            -840.00    14000.00
00564            -840.00    14000.00
00565            -920.00    14000.00
00566            -920.00    14200.00
00567           -1000.00    14200.00
00568           -1080.00    14200.00
00569           -1080.00    14200.00
00570           -1160.00    14400.00
00571           -1160.00    14200.00
00572           -1240.00    14600.00
00573           -1360.00    14400.00
00574           -1440.00    14400.00
00575           -1480.00    14600.00
00576           -1600.00    14400.00
00577           -1680.00    14600.00
00578           -1760.00    14600.00
00579           -1880.00    14200.00
00580           -2000.00    14400.00
00581           -2120.00    14200.00
00582           -2240.00    14200.00
00583           -2360.00    14200.00
00584           -2440.00    14200.00
00585           -2520.00    14200.00
00586           -2560.00    14000.00
00587           -2600.00    14200.00
00588           -2600.00    14000.00
00589           -2600.00    14000.00
00590           -2560.00    13800.00
00591           -2520.00    14000.00
00592           -2440.00    13800.00
00593           -2400.00    13800.00
00594           -2240.00    13800.00
00595           -2200.00    13400.00
00596           -2080.00    13400.00
00597           -1920.00    13400.00
00598           -1800.00    13200.00
00599           -1680.00    13200.00
00600           -1600.00    13200.00
00601           -1480.00    13000.00
00602           -1400.00    12800.00
00603           -1280.00    13000.00
00604           -1160.00    12600.00
00605           -1080.00    12400.00
00606           -1040.00    12400.00
00607           -1000.00    12200.00
00608            -960.00    12000.00
00609            -920.00    11800.00
00610            -800.00    11800.00
00611            -760.00    11600.00
00612            -720.00    11400.00
00613            -680.00    11200.00
00614            -640.00    11000.00
00615            -640.00    10800.00
00616            -640.00    10600.00
00617            -560.00    10200.00
00618            -520.00    10200.00
00619            -520.00    10200.00
00620            -520.00    10000.00
00621            -480.00     9800.00
00622            -480.00     9600.00
00623            -440.00     9400.00
00624            -440.00     9200.00
00625            -440.00     9000.00
00626            -360.00     8600.00
00627            -440.00     8400.00
00628            -360.00     8200.00
00629            -320.00     8000.00
00630            -320.00     7800.00
00631            -320.00     7600.00
00632            -320.00     7400.00
00633            -320.00     7200.00
00634            -320.00     6800.00
00635            -280.00     6600.00
00636            -280.00     6200.00
00637            -280.00     6200.00
00638            -280.00     5800.00
00639            -280.00     5800.00
00640            -280.00     5400.00
00641            -200.00     5200.00
00642            -200.00     5000.00
00643            -200.00     4600.00
00644            -200.00     4200.00
00645            -240.00     4200.00
00646            -200.00     3800.00
00647            -200.00     3600.00
00648            -200.00     3400.00
00649            -200.00     3000.00
00650            -200.00     2600.00
00651            -200.00     2600.00
00652            -160.00     2200.00
00653            -200.00     2000.00
00654            -160.00     1800.00
00655            -160.00     1400.00
00656            -160.00     1200.00
00657            -120.00     1000.00
00658            -160.00      600.00
00659             -80.00      400.00
00660            -120.00      200.00
00661            -120.00        0.00
00662             -40.00     -400.00
00663              40.00     -600.00
00664             120.00     -800.00
00665             120.00    -1000.00
00666              40.00    -1400.00
00667               0.00    -1600.00
00668               0.00    -1800.00
00669             160.00    -2200.00
00670             520.00    -2200.00
00671            1200.00    -2800.00
00672             640.00    -3200.00
00673            -520.00    -3400.00
00674            -960.00    -3600.00
00675            -720.00    -3600.00
00676            -640.00    -3800.00
00677            -480.00    -4200.00
00678             480.00    -4600.00
00679             360.00    -4600.00
00680             440.00    -4800.00
00681             280.00    -5600.00
00682              40.00    -5000.00
00683             320.00    -5800.00
00684             200.00    -6000.00
00685             280.00    -6200.00
00686             160.00    -6600.00
00687               0.00    -6600.00
00688              40.00    -7200.00
00689             120.00    -6800.00
00690             160.00    -7400.00
00691             120.00    -7600.00
00692             240.00    -7600.00
00693             280.00    -8200.00
00694             160.00    -8200.00
00695             280.00    -8600.00
00696             200.00    -8600.00
00697             280.00    -9000.00
00698             280.00    -9200.00
00699             200.00    -9400.00
00700             200.00    -9800.00
00701             320.00    -9600.00
00702             320.00   -10000.00
00703             280.00   -10200.00
00704             320.00   -10400.00
00705             320.00   -10600.00
00706             360.00   -10600.00
00707             360.00   -11000.00
00708             400.00   -11000.00
00709             320.00   -11400.00
00710             360.00   -11400.00
00711             440.00   -11800.00
00712             360.00   -11800.00
00713             440.00   -11800.00
00714             440.00   -12200.00
00715             440.00   -12200.00
00716             480.00   -12200.00
00717             440.00   -12400.00
00718             480.00   -12600.00
00719             520.00   -13000.00
00720             520.00   -12800.00
00721             600.00   -13200.00
00722             600.00   -13000.00
00723             600.00   -13200.00
00724             640.00   -13400.00
00725             680.00   -13400.00
00726             680.00   -13400.00
00727             760.00   -13600.00
00728             760.00   -13800.00
00729             760.00   -13600.00
00730             760.00   -13800.00
00731             840.00   -14000.00
00732             920.00   -14000.00
00733             960.00   -14000.00
00734             960.00   -14200.00
00735            1040.00   -14200.00
00736            1080.00   -14200.00
00737            1120.00   -14200.00
00738            1160.00   -14200.00
00739            1240.00   -14200.00
00740            1320.00   -14200.00
00741            1400.00   -14400.00
00742            1440.00   -14200.00
00743            1560.00   -14200.00
00744            1640.00   -14200.00
00745            1760.00   -14600.00
00746            1880.00   -14200.00
00747            2040.00   -14200.00
00748            2080.00   -14200.00
00749            2240.00   -14600.00
00750            2320.00   -14200.00
00751            2400.00   -14200.00
00752            2520.00   -14000.00
00753            2560.00   -14200.00
00754            2560.00   -14200.00
00755            2600.00   -14000.00
00756            2600.00   -14000.00
00757            2560.00   -14000.00
00758            2520.00   -13600.00
00759            2440.00   -13600.00
00760            2360.00   -13800.00
00761            2280.00   -13600.00
00762            2120.00   -13600.00
00763            2040.00   -13400.00
00764            1920.00   -13400.00
00765            1800.00   -13200.00
00766            1720.00   -13200.00
00767            1600.00   -13000.00
00768            1440.00   -13000.00
00769            1400.00   -13000.00
00770            1280.00   -12600.00
00771            1200.00   -12600.00
00772            1120.00   -12400.00
00773            1080.00   -12200.00
00774             960.00   -12200.00
00775             920.00   -12000.00
00776             840.00   -11800.00
00777             800.00   -11800.00
00778             760.00   -11400.00
00779             680.00   -11400.00
00780             680.00   -11200.00
00781             640.00   -11000.00
00782             600.00   -10800.00
00783             600.00   -10600.00
00784             520.00   -10600.00
00785             520.00   -10200.00
00786             520.00   -10000.00
00787             440.00    -9800.00
00788             440.00    -9800.00
00789             440.00    -9600.00
00790             440.00    -9200.00
00791             360.00    -9200.00
00792             440.00    -9000.00
00793             360.00    -8800.00
00794             360.00    -8600.00
00795             320.00    -8200.00
00796             320.00    -8200.00
00797             320.00    -7800.00
00798             320.00    -7600.00
00799             320.00    -7200.00
00800             280.00    -7200.00
00801             320.00    -7000.00
00802             280.00    -6600.00
00803             280.00    -6600.00
00804             280.00    -6200.00
00805             280.00    -6000.00
00806             240.00    -5800.00
00807             200.00    -5400.00
00808             200.00    -5200.00
00809             200.00    -5000.00
00810             200.00    -4800.00
00811             160.00    -4600.00
00812             200.00    -4200.00
00813             200.00    -4000.00
00814             160.00    -3600.00
00815             160.00    -3400.00
00816             160.00    -3000.00
00817             120.00    -2800.00
00818             160.00    -2600.00
00819             160.00    -2400.00
00820             120.00    -2000.00
00821             120.00    -1800.00
00822             120.00    -1400.00
00823             120.00    -1200.00
00824             120.00     -800.00
00825             120.00     -600.00
00826              80.00     -600.00
00827             120.00     -200.00
00828              80.00      200.00
00829             120.00      400.00
00830             120.00      600.00
00831             240.00      800.00
00832             200.00     1000.00
00833             160.00     1400.00
00834             160.00     1400.00
00835             160.00     1800.00
00836             280.00     2000.00
00837             960.00     2600.00
00838            1400.00     2800.00
00839             280.00     3000.00
00840           -1080.00     3000.00
00841           -1240.00     3400.00
00842           -1040.00     3800.00
00843            -840.00     3800.00
00844             600.00     4200.00
00845             480.00     4200.00
00846             120.00     4800.00
00847             200.00     4600.00
00848            -280.00     5400.00
00849               0.00     5800.00
00850             -40.00     5200.00
00851              40.00     6400.00
00852               0.00     5800.00
00853            -200.00     6600.00
00854            -120.00     6800.00
00855            -360.00     6600.00
00856             -80.00     7400.00
00857            -120.00     7200.00
00858            -120.00     7800.00
00859            -200.00     7600.00
00860            -120.00     8200.00
00861            -160.00     8600.00
00862            -320.00     8200.00
00863            -120.00     9000.00
00864            -280.00     8800.00
00865            -200.00     9200.00
00866            -320.00     9400.00
00867            -200.00     9800.00
00868            -320.00     9800.00
00869            -200.00    10000.00
00870            -200.00    10400.00
00871            -320.00    10400.00
00872            -280.00    10800.00
00873            -320.00    10800.00
00874            -360.00    11000.00
00875            -360.00    11000.00
00876            -320.00    11400.00
00877            -480.00    11600.00
00878            -360.00    11600.00
00879            -440.00    11800.00
00880            -440.00    12000.00
00881            -440.00    12200.00
00882            -440.00    12200.00
00883            -520.00    12400.00
00884            -520.00    12400.00
00885            -480.00    12800.00
00886            -520.00    12600.00
00887            -520.00    13000.00
00888            -600.00    13000.00
00889            -640.00    13200.00
00890            -640.00    13200.00
00891            -640.00    13400.00
00892            -640.00    13400.00
00893            -640.00    13400.00
00894            -680.00    13800.00
00895            -800.00    13800.00
00896            -800.00    13800.00
00897            -840.00    13800.00
00898            -840.00    14000.00
00899            -920.00    14000.00
00900            -920.00    14200.00
00901            -960.00    14200.00
00902           -1080.00    14200.00
00903           -1120.00    14200.00
00904           -1160.00    14400.00
00905           -1160.00    14200.00
00906           -1280.00    14400.00
00907           -1320.00    14200.00
00908           -1440.00    14200.00
00909           -1520.00    14400.00
00910           -1560.00    14400.00
00911           -1680.00    14200.00
00912           -1760.00    14400.00
00913           -1800.00    14400.00
00914           -1960.00    14400.00
00915           -2080.00    14400.00
00916           -2200.00    14600.00
00917           -2280.00    14400.00
00918           -2400.00    14200.00
00919           -2440.00    14200.00
00920           -2560.00    14200.00
00921           -2600.00    14200.00
00922           -2600.00    14200.00
00923           -2600.00    14000.00
00924           -2600.00    14000.00
00925           -2560.00    14000.00
00926           -2440.00    13800.00
00927           -2400.00    14000.00
00928           -2280.00    13800.00
00929           -2200.00    13600.00
00930           -2080.00    13600.00
00931           -1960.00    13400.00
00932           -1800.00    13400.00
00933           -1720.00    13200.00
00934           -1600.00    13200.00
00935           -1520.00    13000.00
00936           -1400.00    13000.00
00937           -1320.00    12600.00
00938           -1240.00    12600.00
00939           -1160.00    12400.00
00940           -1080.00    12400.00
00941           -1000.00    12200.00
00942            -960.00    12000.00
00943            -920.00    12000.00
00944            -840.00    11800.00
00945            -760.00    11600.00
00946            -760.00    11600.00
00947            -680.00    11400.00
00948            -640.00    11200.00
00949            -640.00    10800.00
00950            -640.00    10800.00
00951            -600.00    10600.00
00952            -520.00    10400.00
00953            -520.00    10200.00
00954            -520.00     9800.00
00955            -480.00     9800.00
00956            -480.00     9800.00
00957            -440.00     9400.00
00958            -440.00     9200.00
00959            -400.00     9000.00
00960            -400.00     8600.00
00961            -400.00     8400.00
00962            -440.00     8200.00
00963            -360.00     8200.00
00964            -360.00     7800.00
00965            -360.00     7600.00
00966            -320.00     7400.00
00967            -320.00     7400.00
00968            -320.00     6800.00
00969            -320.00     6800.00
00970            -280.00     6600.00
00971            -280.00     6200.00
00972            -280.00     6000.00
00973            -280.00     5800.00
00974            -280.00     5600.00
00975            -240.00     5200.00
00976            -280.00     5000.00
00977            -280.00     4600.00
00978            -200.00     4400.00
00979            -200.00     4200.00
00980            -200.00     3800.00
00981            -200.00     3600.00
00982            -200.00     3400.00
00983            -200.00     3200.00
00984            -200.00     3000.00
00985            -200.00     2600.00
00986            -160.00     2200.00
00987            -160.00     2000.00
00988            -160.00     1800.00
00989            -120.00     1800.00
00990            -120.00     1200.00
00991            -120.00     1000.00
00992             -40.00      800.00
00993            -120.00      600.00
00994            -160.00      400.00
00995             -80.00     -200.00
00996            -120.00     -400.00
00997             -40.00     -600.00
00998               0.00     -600.00
00999             120.00    -1000.00
01000             160.00    -1200.00
01001             160.00    -1400.00
01002             240.00    -1800.00
01003             160.00    -2000.00
01004             400.00    -2200.00
01005            1000.00    -2800.00
01006             760.00    -3000.00
01007            -320.00    -3400.00
01008           -1000.00    -3400.00
01009            -800.00    -3600.00
01010            -600.00    -3800.00
01011            -520.00    -4000.00
01012             360.00    -4400.00
01013             600.00    -4800.00
01014             320.00    -4600.00
01015             360.00    -5400.00
01016             -40.00    -5200.00
01017             160.00    -5400.00
01018             160.00    -6200.00
01019             200.00    -6000.00
01020             320.00    -6400.00
01021             120.00    -6600.00
01022             160.00    -7000.00
01023             120.00    -7000.00
01024             200.00    -7200.00
01025              40.00    -7800.00
01026             120.00    -7600.00
01027             200.00    -8200.00
01028             120.00    -8200.00
01029             200.00    -8600.00
01030             240.00    -8600.00
01031             320.00    -8600.00
01032             360.00    -9200.00
01033             320.00    -9200.00
01034             200.00    -9800.00
01035             280.00    -9800.00
01036             200.00    -9800.00
01037             160.00   -10200.00
01038             200.00   -10200.00
01039             320.00   -10600.00
01040             320.00   -10800.00
01041             360.00   -11000.00
01042             440.00   -11200.00
01043             360.00   -11400.00
01044             360.00   -11400.00
01045             320.00   -11600.00
01046             320.00   -11800.00
01047             360.00   -11800.00
01048             440.00   -12200.00
01049             480.00   -12200.00
01050             480.00   -12400.00
01051             520.00   -12400.00
01052             520.00   -12600.00
01053             520.00   -12800.00
01054             520.00   -12600.00
01055             520.00   -13000.00
01056             520.00   -13000.00
01057             560.00   -13200.00
01058             600.00   -13200.00
01059             680.00   -13400.00
01060             680.00   -13400.00
01061             760.00   -13800.00
01062             800.00   -13600.00
01063             760.00   -13800.00
01064             760.00   -13600.00
01065             800.00   -14000.00
01066             920.00   -14000.00
01067             920.00   -14000.00
01068             960.00   -14200.00
01069            1000.00   -14200.00
01070            1080.00   -14200.00
01071            1120.00   -14200.00
01072            1160.00   -14200.00
01073            1240.00   -14200.00
01074            1280.00   -14200.00
01075            1400.00   -14200.00
01076            1400.00   -14200.00
01077            1560.00   -14600.00
01078            1640.00   -14200.00
01079            1720.00   -14200.00
01080            1880.00   -14600.00
01081            2000.00   -14400.00
01082            2080.00   -14200.00
01083            2160.00   -14200.00
01084            2280.00   -14200.00
01085            2360.00   -14200.00
01086            2440.00   -14200.00
01087            2520.00   -14200.00
01088            2560.00   -14200.00
01089            2600.00   -14000.00
01090            2560.00   -14000.00
01091            2560.00   -13600.00
01092            2520.00   -13800.00
01093            2440.00   -13800.00
01094            2400.00   -13600.00
01095            2280.00   -13600.00
01096            2200.00   -13400.00
01097            2080.00   -13400.00
01098            1920.00   -13400.00
01099            1880.00   -13200.00
01100            1760.00   -13200.00
01101            1600.00   -13000.00
01102            1480.00   -13000.00
01103            1400.00   -13000.00
01104            1280.00   -12800.00
01105            1240.00   -12600.00
01106            1120.00   -12600.00
01107            1080.00   -12200.00
01108            1000.00   -12400.00
01109             920.00   -12000.00
01110             840.00   -11800.00
01111             800.00   -11800.00
01112             760.00   -11600.00
01113             680.00   -11400.00
01114             640.00   -11400.00
01115             640.00   -11000.00
01116             600.00   -11000.00
01117             600.00   -10800.00
01118             600.00   -10600.00
01119             520.00   -10200.00
01120             520.00   -10200.00
01121             480.00   -10000.00
01122             440.00    -9800.00
01123             440.00    -9600.00
01124             440.00    -9400.00
01125             440.00    -9200.00
01126             400.00    -9200.00
01127             440.00    -9000.00
01128             360.00    -8600.00
01129             360.00    -8400.00
01130             320.00    -8200.00
01131             320.00    -7800.00
01132             320.00    -7600.00
01133             320.00    -7400.00
01134             320.00    -7000.00
01135             280.00    -7000.00
01136             280.00    -6600.00
01137             280.00    -6600.00
01138             280.00    -6200.00
01139             280.00    -6000.00
01140             280.00    -5800.00
01141             200.00    -5400.00
01142             200.00    -5400.00
01143             200.00    -5000.00
01144             240.00    -4800.00
01145             200.00    -4600.00
01146             200.00    -4200.00
01147             200.00    -4200.00
01148             160.00    -3600.00
01149             160.00    -3400.00
01150             120.00    -3200.00
01151             160.00    -3000.00
01152             160.00    -2800.00
01153             160.00    -2600.00
01154             160.00    -2200.00
01155             120.00    -2000.00
01156             120.00    -1600.00
01157             120.00    -1400.00
01158             120.00    -1000.00
01159             120.00     -600.00
01160             120.00     -600.00
01161              40.00     -200.00
01162              40.00      200.00
01163             120.00      200.00
01164             120.00      600.00
01165             200.00      800.00
01166             200.00     1000.00
01167             160.00     1200.00
01168             120.00     1400.00
01169             120.00     1800.00
01170             160.00     1800.00
01171             640.00     2200.00
01172            1400.00     2800.00
01173             680.00     3000.00
01174            -760.00     3000.00
01175           -1320.00     3200.00
01176           -1000.00     3600.00
01177           -1040.00     4000.00
01178             160.00     4200.00
01179             680.00     4400.00
01180              80.00     4600.00
01181             280.00     4800.00
01182            -200.00     5000.00
01183             -80.00     6000.00
01184             -40.00     5200.00
01185             -40.00     6000.00
01186             160.00     6200.00
01187            -200.00     6000.00
01188            -120.00     7000.00
01189            -320.00     6600.00
01190            -160.00     7400.00
01191             -80.00     7400.00
01192            -160.00     7600.00
01193            -120.00     7800.00
01194            -160.00     7800.00
01195            -120.00     8600.00
01196            -280.00     8200.00
01197            -120.00     9000.00
01198            -200.00     9000.00
01199            -240.00     9200.00
01200            -280.00     9400.00
01201            -240.00     9600.00
01202            -320.00     9800.00
01203            -280.00     9800.00
01204            -160.00    10600.00
01205            -280.00    10200.00
01206            -280.00    10600.00
01207            -320.00    10800.00
01208            -320.00    11000.00
01209            -360.00    11000.00
01210            -320.00    11400.00
01211            -440.00    11400.00
01212            -440.00    11600.00
01213            -360.00    11800.00
01214            -440.00    12000.00
01215            -440.00    12200.00
01216            -440.00    12200.00
01217            -520.00    12400.00
01218            -520.00    12400.00
01219            -520.00    12800.00
01220            -520.00    12600.00
01221            -520.00    13000.00
01222            -520.00    13200.00
01223            -640.00    13200.00
01224            -640.00    13200.00
01225            -600.00    13200.00
01226            -640.00    13400.00
01227            -680.00    13600.00
01228            -680.00    13800.00
01229            -760.00    13800.00
01230            -800.00    13800.00
01231            -840.00    14000.00
01232            -840.00    14200.00
01233            -920.00    14000.00
01234            -920.00    14000.00
01235            -960.00    14000.00
01236           -1040.00    14400.00
01237           -1080.00    14200.00
01238           -1120.00    14200.00
01239           -1160.00    14400.00
01240           -1240.00    14400.00
01241           -1320.00    14400.00
01242           -1400.00    14400.00
01243           -1480.00    14600.00
01244           -1560.00    14600.00
01245           -1640.00    14600.00
01246           -1720.00    14400.00
01247           -1800.00    14600.00
01248           -1920.00    14400.00
01249           -2080.00    14200.00
01250           -2200.00    14200.00
01251           -2280.00    14400.00
01252           -2400.00    14200.00
01253           -2440.00    14200.00
01254           -2560.00    14200.00
01255           -2560.00    14000.00
01256           -2600.00    14200.00
01257           -2600.00    14200.00
01258           -2600.00    14000.00
01259           -2560.00    14000.00
01260           -2520.00    14000.00
01261           -2400.00    13800.00
01262           -2280.00    13800.00
01263           -2240.00    13800.00
01264           -2120.00    13600.00
01265           -1960.00    13400.00
01266           -1880.00    13400.00
01267           -1760.00    13200.00
01268           -1640.00    13200.00
01269           -1560.00    13000.00
01270           -1440.00    13000.00
01271           -1320.00    13000.00
01272           -1240.00    12800.00
01273           -1160.00    12600.00
01274           -1080.00    12400.00
01275           -1000.00    12200.00
01276            -960.00    12200.00
01277            -920.00    12000.00
01278            -880.00    11800.00
01279            -800.00    11600.00
01280            -760.00    11600.00
01281            -680.00    11400.00
01282            -640.00    11000.00
01283            -640.00    10800.00
01284            -640.00    10800.00
01285            -600.00    10600.00
01286            -520.00    10400.00
01287            -520.00    10200.00
01288            -520.00    10000.00
01289            -520.00    10000.00
01290            -480.00     9600.00
01291            -480.00     9600.00
01292            -480.00     9200.00
01293            -440.00     9200.00
01294            -440.00     8600.00
01295            -440.00     8600.00
01296            -440.00     8200.00
01297            -440.00     8200.00
01298            -400.00     8000.00
01299            -360.00     7600.00
01300            -360.00     7400.00
01301            -320.00     7200.00
01302            -320.00     7000.00
01303            -320.00     6800.00
01304            -320.00     6600.00
01305            -320.00     6200.00
01306            -280.00     6000.00
01307            -280.00     5800.00
01308            -280.00     5600.00
01309            -280.00     5400.00
01310            -280.00     5000.00
01311            -280.00     4800.00
01312            -200.00     4600.00
01313            -200.00     4400.00
01314            -200.00     4200.00
01315            -200.00     3800.00
01316            -200.00     3600.00
01317            -200.00     3200.00
01318            -200.00     3000.00
01319            -200.00     2800.00
01320            -160.00     2400.00
01321            -160.00     2200.00
01322            -160.00     1800.00
01323            -160.00     1600.00
01324            -160.00     1400.00
01325            -160.00     1200.00
01326            -120.00     1000.00
01327            -120.00      600.00
01328            -120.00      400.00
01329            -120.00      200.00
01330             -40.00     -200.00
01331               0.00     -600.00
01332             120.00     -600.00
01333             160.00    -1000.00
01334              80.00    -1200.00
01335              80.00    -1600.00
01336               0.00    -1800.00
01337              80.00    -2000.00
01338             280.00    -2000.00
01339             840.00    -2200.00
01340            1160.00    -3000.00
01341             200.00    -3200.00
01342            -760.00    -3400.00
01343            -920.00    -3600.00
01344            -680.00    -3600.00
01345            -680.00    -4000.00
01346            -120.00    -4200.00
01347             600.00    -4800.00
01348             320.00    -4400.00
01349             440.00    -5400.00
01350             160.00    -5400.00
01351             160.00    -5200.00
01352             320.00    -6200.00
01353             160.00    -5800.00
01354             280.00    -6600.00
01355             120.00    -6400.00
01356              40.00    -6600.00
01357               0.00    -7200.00
01358             120.00    -7000.00
01359             160.00    -7800.00
01360             120.00    -7200.00
01361             280.00    -8000.00
01362             200.00    -8200.00
01363             200.00    -8400.00
01364             200.00    -8800.00
01365             280.00    -8800.00
01366             280.00    -9200.00
01367             280.00    -9200.00
01368             160.00    -9600.00
01369             240.00    -9800.00
01370             280.00    -9800.00
01371             280.00   -10200.00
01372             280.00   -10200.00
01373             320.00   -10600.00
01374             320.00   -10600.00
01375             320.00   -10800.00
01376             360.00   -11000.00
01377             320.00   -11400.00
01378             360.00   -11400.00
01379             360.00   -11400.00
01380             360.00   -11800.00
01381             360.00   -11800.00
01382             440.00   -12200.00
01383             440.00   -12200.00
01384             440.00   -12400.00
01385             440.00   -12400.00
01386             480.00   -12600.00
01387             520.00   -12600.00
01388             520.00   -12600.00
01389             600.00   -13000.00
01390             600.00   -13000.00
01391             600.00   -13200.00
01392             600.00   -13000.00
01393             680.00   -13400.00
01394             760.00   -13400.00
01395             720.00   -13400.00
01396             720.00   -13600.00
01397             760.00   -13800.00
01398             760.00   -13600.00
01399             800.00   -13800.00
01400             920.00   -14000.00
01401             960.00   -14000.00
01402            1000.00   -14200.00
01403            1040.00   -14000.00
01404            1080.00   -14400.00
01405            1080.00   -14200.00
01406            1160.00   -14200.00
01407            1240.00   -14400.00
01408            1280.00   -14200.00
01409            1360.00   -14200.00
01410            1440.00   -14400.00
01411            1520.00   -14600.00
01412            1600.00   -14200.00
01413            1720.00   -14400.00
01414            1800.00   -14600.00
01415            1920.00   -14400.00
01416            2040.00   -14200.00
01417            2120.00   -14400.00
01418            2240.00   -14200.00
01419            2360.00   -14200.00
01420            2440.00   -14200.00
01421            2520.00   -14200.00
01422            2560.00   -14200.00
01423            2600.00   -14000.00
01424            2600.00   -14000.00
01425            2560.00   -14000.00
01426            2560.00   -14000.00
01427            2520.00   -13800.00
01428            2400.00   -13600.00
01429            2360.00   -13800.00
01430            2240.00   -13600.00
01431            2120.00   -13600.00
01432            1960.00   -13400.00
01433            1880.00   -13400.00
01434            1760.00   -13200.00
01435            1640.00   -13200.00
01436            1560.00   -13000.00
01437            1400.00   -13000.00
01438            1280.00   -12800.00
01439            1240.00   -12600.00
01440            1160.00   -12600.00
01441            1080.00   -12400.00
01442            1000.00   -12200.00
01443             960.00   -12200.00
01444             840.00   -12000.00
01445             800.00   -11800.00
01446             760.00   -11600.00
01447             720.00   -11600.00
01448             680.00   -11400.00
01449             640.00   -11200.00
01450             640.00   -11000.00
01451             600.00   -10800.00
01452             600.00   -10600.00
01453             520.00   -10400.00
01454             520.00   -10200.00
01455             480.00   -10000.00
01456             480.00    -9800.00
01457             440.00    -9800.00
01458             440.00    -9400.00
01459             440.00    -9200.00
01460             400.00    -9200.00
01461             400.00    -8800.00
01462             360.00    -8600.00
01463             400.00    -8200.00
01464             320.00    -8200.00
01465             320.00    -7800.00
01466             320.00    -7600.00
01467             320.00    -7600.00
01468             320.00    -7200.00
01469             320.00    -7000.00
01470             280.00    -7000.00
01471             280.00    -6600.00
01472             280.00    -6400.00
01473             280.00    -6000.00
01474             280.00    -5800.00
01475             280.00    -5600.00
01476             200.00    -5200.00
01477             200.00    -5200.00
01478             200.00    -4800.00
01479             200.00    -4600.00
01480             200.00    -4200.00
01481             200.00    -4200.00
01482             160.00    -3800.00
01483             160.00    -3600.00
01484             160.00    -3200.00
01485             160.00    -3000.00
01486             120.00    -2800.00
01487             160.00    -2600.00
01488             160.00    -2200.00
01489             160.00    -2000.00
01490             120.00    -1800.00
01491             120.00    -1400.00
01492             120.00    -1200.00
01493             120.00     -800.00
01494              80.00     -600.00
01495              80.00     -400.00
01496              40.00        0.00
01497              40.00      200.00
01498              80.00      400.00
01499             160.00      600.00
01500             240.00     1000.00
01501             200.00     1200.00
01502             160.00     1200.00
01503             120.00     1600.00
01504             120.00     2000.00
01505             440.00     2200.00
01506            1240.00     2800.00
01507            1120.00     2800.00
01508            -320.00     3000.00
01509           -1320.00     3200.00
01510           -1120.00     3600.00
01511           -1080.00     4000.00
01512            -320.00     4000.00
01513             800.00     4400.00
01514             200.00     4600.00
01515             200.00     5000.00
01516             -40.00     4600.00
01517            -200.00     5800.00
01518              40.00     5400.00
01519            -120.00     5800.00
01520             160.00     6600.00
01521            -120.00     6000.00
01522            -160.00     7000.00
01523            -200.00     6600.00
01524            -280.00     7000.00
01525             -40.00     7400.00
01526            -160.00     7400.00
01527            -120.00     7800.00
01528            -200.00     7600.00
01529             -80.00     8600.00
01530            -280.00     8400.00
01531            -160.00     8400.00
01532            -160.00     9200.00
01533            -280.00     9000.00
01534            -200.00     9400.00
01535            -280.00     9600.00
01536            -280.00     9800.00
01537            -320.00     9800.00
01538            -200.00    10200.00
01539            -280.00    10400.00
01540            -320.00    10600.00
01541            -320.00    10800.00
01542            -320.00    10800.00
01543            -360.00    11000.00
01544            -320.00    11200.00
01545            -360.00    11400.00
01546            -480.00    11600.00
01547            -440.00    11800.00
01548            -440.00    12000.00
01549            -440.00    12200.00
01550            -440.00    12200.00
01551            -480.00    12400.00
01552            -520.00    12400.00
01553            -520.00    12600.00
01554            -520.00    13000.00
01555            -520.00    13000.00
01556            -560.00    13000.00
01557            -600.00    13200.00
01558            -640.00    13200.00
01559            -640.00    13400.00
01560            -680.00    13400.00
01561            -680.00    13600.00
01562            -680.00    13600.00
01563            -760.00    13800.00
01564            -800.00    13800.00
01565            -840.00    13800.00
01566            -840.00    13800.00
01567            -840.00    14000.00
01568            -920.00    14000.00
01569            -960.00    14200.00
01570           -1000.00    14200.00
01571           -1080.00    14200.00
01572           -1120.00    14200.00
01573           -1160.00    14400.00
01574           -1240.00    14200.00
01575           -1280.00    14400.00
01576           -1360.00    14200.00
01577           -1440.00    14600.00
01578           -1520.00    14600.00
01579           -1600.00    14600.00
01580           -1720.00    14400.00
01581           -1760.00    14600.00
01582           -1880.00    14200.00
01583           -2040.00    14400.00
01584           -2120.00    14200.00
01585           -2240.00    14400.00
01586           -2360.00    14400.00
01587           -2400.00    14200.00
01588           -2520.00    14200.00
01589           -2560.00    14200.00
01590           -2600.00    14200.00
01591           -2600.00    14200.00
01592           -2600.00    14000.00
01593           -2560.00    14000.00
01594           -2520.00    14200.00
01595           -2440.00    13800.00
01596           -2360.00    13800.00
01597           -2240.00    13800.00
01598           -2120.00    13600.00
01599           -2040.00    13400.00
01600           -1920.00    13400.00
01601           -1800.00    13200.00
01602           -1680.00    13200.00
01603           -1560.00    13200.00
01604           -1480.00    13000.00
01605           -1400.00    12800.00
01606           -1280.00    12600.00
01607           -1160.00    12600.00
01608           -1120.00    12600.00
01609           -1000.00    12400.00
01610            -960.00    12200.00
01611            -920.00    12200.00
01612            -840.00    11800.00
01613            -800.00    11800.00
01614            -760.00    11600.00
01615            -680.00    11400.00
01616            -680.00    11200.00
01617            -680.00    11000.00
01618            -640.00    11000.00
01619            -600.00    10600.00
01620            -560.00    10600.00
01621            -520.00    10200.00
01622            -520.00    10200.00
01623            -520.00    10000.00
01624            -520.00     9800.00
01625            -480.00     9400.00
01626            -480.00     9200.00
01627            -480.00     9000.00
01628            -440.00     9000.00
01629            -440.00     8600.00
01630            -400.00     8400.00
01631            -360.00     8200.00
01632            -360.00     8200.00
01633            -360.00     7800.00
01634            -320.00     7600.00
01635            -320.00     7400.00
01636            -320.00     7000.00
01637            -320.00     6800.00
01638            -320.00     6600.00
01639            -320.00     6400.00
01640            -280.00     6200.00
01641            -280.00     6000.00
01642            -280.00     5800.00
01643            -280.00     5400.00
01644            -280.00     5200.00
01645            -280.00     5000.00
01646            -240.00     4800.00
01647            -200.00     4400.00
01648            -200.00     4200.00
01649            -200.00     3800.00
01650            -200.00     3600.00
01651            -200.00     3400.00
01652            -200.00     3000.00
01653            -160.00     2800.00
01654            -160.00     2400.00
01655            -160.00     2200.00
01656            -160.00     2000.00
01657            -160.00     1800.00
01658            -120.00     1400.00
01659            -120.00     1200.00
01660            -120.00     1000.00
01661            -120.00      600.00
01662            -120.00      400.00
01663             -40.00      200.00
01664             -40.00        0.00
01665             -40.00     -400.00
01666             120.00     -400.00
01667             160.00     -800.00
01668             120.00    -1200.00
01669              40.00    -1200.00
01670              40.00    -1800.00
01671              40.00    -1800.00
01672             120.00    -2000.00
01673             560.00    -2200.00
01674            1200.00    -2800.00
01675             600.00    -3200.00
01676            -520.00    -3200.00
01677           -1000.00    -3600.00
01678            -680.00    -3600.00
01679            -640.00    -3800.00
01680            -440.00    -4200.00
01681             560.00    -4600.00
01682             360.00    -4600.00
01683             440.00    -4800.00
01684             280.00    -5600.00
01685               0.00    -5200.00
01686             360.00    -5800.00
01687             160.00    -6000.00
01688             240.00    -6200.00
01689             160.00    -6600.00
01690               0.00    -6600.00
01691              40.00    -7200.00
01692             120.00    -6800.00
01693             120.00    -7600.00
01694              80.00    -7400.00
01695             240.00    -7800.00
01696             280.00    -8400.00
01697             200.00    -8200.00
01698             200.00    -8800.00
01699             200.00    -8600.00
01700             280.00    -9000.00
01701             280.00    -9200.00
01702             200.00    -9400.00
01703             160.00    -9800.00
01704             280.00    -9800.00
01705             280.00   -10000.00
01706             280.00   -10200.00
01707             320.00   -10400.00
01708             320.00   -10600.00
01709             320.00   -10800.00
01710             320.00   -10800.00
01711             320.00   -11200.00
01712             360.00   -11400.00
01713             360.00   -11400.00
01714             360.00   -11600.00
01715             360.00   -11800.00
01716             440.00   -12000.00
01717             440.00   -12200.00
01718             480.00   -12200.00
01719             480.00   -12400.00
01720             480.00   -12600.00
01721             480.00   -12600.00
01722             520.00   -12800.00
01723             520.00   -13000.00
01724             600.00   -13200.00
01725             600.00   -13000.00
01726             640.00   -13200.00
01727             640.00   -13200.00
01728             680.00   -13400.00
01729             760.00   -13400.00
01730             760.00   -13800.00
01731             760.00   -13600.00
01732             800.00   -13800.00
01733             800.00   -13600.00
01734             840.00   -14000.00
01735             920.00   -14000.00
01736             960.00   -14200.00
01737            1000.00   -14000.00
01738            1080.00   -14200.00
01739            1080.00   -14200.00
01740            1120.00   -14200.00
01741            1160.00   -14200.00
01742            1240.00   -14400.00
01743            1320.00   -14400.00
01744            1400.00   -14400.00
01745            1480.00   -14600.00
01746            1600.00   -14600.00
01747            1640.00   -14200.00
01748            1760.00   -14200.00
01749            1880.00   -14400.00
01750            2000.00   -14200.00
01751            2120.00   -14400.00
01752            2200.00   -14200.00
01753            2280.00   -14200.00
01754            2400.00   -14400.00
01755            2520.00   -14200.00
01756            2560.00   -14200.00
01757            2600.00   -14200.00
01758            2560.00   -14000.00
01759            2560.00   -14000.00
01760            2560.00   -14000.00
01761            2520.00   -13600.00
01762            2440.00   -13800.00
01763            2360.00   -13600.00
01764            2240.00   -13400.00
01765            2120.00   -13600.00
01766            2040.00   -13400.00
01767            1880.00   -13400.00
01768            1800.00   -13200.00
01769            1640.00   -13000.00
01770            1560.00   -13000.00
01771            1440.00   -13000.00
01772            1400.00   -12600.00
01773            1240.00   -12600.00
01774            1160.00   -12600.00
01775            1080.00   -12400.00
01776            1000.00   -12400.00
01777             960.00   -12200.00
01778             920.00   -12000.00
01779             840.00   -11800.00
01780             800.00   -11800.00
01781             760.00   -11400.00
01782             680.00   -11400.00
01783             680.00   -11200.00
01784             640.00   -11000.00
01785             600.00   -11000.00
01786             600.00   -10600.00
01787             520.00   -10600.00
01788             560.00   -10400.00
01789             520.00   -10200.00
01790             440.00    -9800.00
01791             440.00    -9600.00
01792             440.00    -9400.00
01793             440.00    -9200.00
01794             440.00    -9000.00
01795             440.00    -8800.00
01796             440.00    -8800.00
01797             360.00    -8400.00
01798             360.00    -8200.00
01799             360.00    -8200.00
01800             320.00    -7800.00
01801             320.00    -7600.00
01802             320.00    -7200.00
01803             320.00    -7000.00
01804             320.00    -7000.00
01805             280.00    -6600.00
01806             280.00    -6400.00
01807             280.00    -6000.00
01808             280.00    -6000.00
01809             280.00    -5600.00
01810             200.00    -5400.00
01811             240.00    -5200.00
01812             200.00    -5000.00
01813             200.00    -4600.00
01814             200.00    -4400.00
01815             160.00    -4200.00
01816             200.00    -3800.00
01817             160.00    -3600.00
01818             160.00    -3400.00
01819             120.00    -3200.00
01820             160.00    -3000.00
01821             120.00    -2600.00
01822             120.00    -2200.00
01823             120.00    -2200.00
01824             120.00    -1800.00
01825              40.00    -1400.00
01826             120.00    -1400.00
01827             120.00     -800.00
01828              40.00     -600.00
01829              80.00     -400.00
01830             120.00     -200.00
01831              40.00        0.00
01832             120.00      400.00
01833             160.00      600.00
01834             240.00     1000.00
01835             280.00     1200.00
01836             160.00     1400.00
01837             120.00     1600.00
01838             120.00     1800.00
01839             280.00     2000.00
01840            1000.00     2600.00
01841            1320.00     2800.00
01842             160.00     3000.00
01843           -1120.00     3000.00
01844           -1240.00     3400.00
01845           -1040.00     3800.00
01846            -760.00     3800.00
01847             640.00     4200.00
01848             440.00     4600.00
01849             160.00     5000.00
01850             160.00     4600.00
01851            -280.00     5600.00
01852              40.00     5800.00
01853            -120.00     5400.00
01854              80.00     6600.00
01855               0.00     6000.00
01856            -200.00     6600.00
01857            -160.00     6800.00
01858            -320.00     6800.00
01859               0.00     7400.00
01860            -120.00     7200.00
01861            -120.00     8000.00
01862            -160.00     7600.00
01863            -120.00     8200.00
01864            -200.00     8400.00
01865            -280.00     8200.00
01866             -80.00     9200.00
01867            -200.00     9000.00
01868            -200.00     9400.00
01869            -280.00     9400.00
01870            -200.00     9800.00
01871            -320.00     9800.00
01872            -200.00    10000.00
01873            -200.00    10400.00
01874            -320.00    10400.00
01875            -320.00    10800.00
01876            -320.00    10800.00
01877            -360.00    11000.00
01878            -320.00    11000.00
01879            -320.00    11400.00
01880            -440.00    11400.00
01881            -360.00    11800.00
01882            -440.00    12000.00
01883            -440.00    11800.00
01884            -440.00    12200.00
01885            -440.00    12400.00
01886            -520.00    12400.00
01887            -520.00    12400.00
01888            -520.00    12600.00
01889            -560.00    13000.00
01890            -600.00    13000.00
01891            -600.00    13200.00
01892            -640.00    13200.00
01893            -640.00    13200.00
01894            -640.00    13400.00
01895            -680.00    13400.00
01896            -680.00    13400.00
01897            -720.00    13800.00
01898            -800.00    13800.00
01899            -840.00    13800.00
01900            -840.00    13800.00
01901            -880.00    13800.00
01902            -920.00    14200.00
01903            -960.00    14200.00
01904           -1000.00    14200.00
01905           -1080.00    14200.00
01906           -1120.00    14200.00
01907           -1120.00    14400.00
01908           -1240.00    14200.00
01909           -1280.00    14400.00
01910           -1320.00    14400.00
01911           -1440.00    14400.00
01912           -1480.00    14600.00
01913           -1560.00    14600.00
01914           -1640.00    14200.00
01915           -1760.00    14600.00
01916           -1880.00    14600.00
01917           -1960.00    14400.00
01918           -2080.00    14400.00
01919           -2240.00    14600.00
01920           -2320.00    14600.00
01921           -2400.00    14200.00
01922           -2520.00    14200.00
01923           -2560.00    14200.00
01924           -2600.00    14200.00
01925           -2600.00    14200.00
01926           -2600.00    14200.00
01927           -2560.00    14000.00
01928           -2560.00    14000.00
01929           -2440.00    14000.00
01930           -2400.00    13800.00
01931           -2280.00    13800.00
01932           -2200.00    13800.00
01933           -2080.00    13600.00
01934           -1920.00    13400.00
01935           -1800.00    13400.00
01936           -1720.00    13400.00
01937           -1600.00    13000.00
01938           -1480.00    13200.00
01939           -1400.00    13000.00
01940           -1280.00    12800.00
01941           -1240.00    12600.00
01942           -1120.00    12600.00
01943           -1080.00    12400.00
01944           -1000.00    12400.00
01945            -920.00    12000.00
01946            -880.00    12000.00
01947            -840.00    11800.00
01948            -800.00    11600.00
01949            -720.00    11600.00
01950            -680.00    11200.00
01951            -680.00    11200.00
01952            -640.00    11000.00
01953            -640.00    10800.00
01954            -600.00    10600.00
01955            -600.00    10400.00
01956            -520.00    10200.00
01957            -520.00    10000.00
01958            -520.00     9800.00
01959            -520.00     9800.00
01960            -480.00     9400.00
01961            -440.00     9400.00
01962            -440.00     9000.00
01963            -440.00     8600.00
01964            -360.00     8600.00
01965            -360.00     8400.00
01966            -360.00     8200.00
01967            -360.00     7800.00
01968            -320.00     7600.00
01969            -360.00     7400.00
01970            -320.00     7200.00
01971            -360.00     7000.00
01972            -320.00     6600.00
01973            -320.00     6600.00
01974            -320.00     6200.00
01975            -320.00     6000.00
01976            -280.00     5800.00
01977            -280.00     5400.00
01978            -280.00     5400.00
01979            -240.00     5000.00
01980            -200.00     4800.00
01981            -200.00     4600.00
01982            -200.00     4200.00
01983            -200.00     4000.00
01984            -200.00     3600.00
01985            -200.00     3400.00
01986            -200.00     3200.00
01987            -160.00     2800.00
01988            -200.00     2600.00
01989            -160.00     2400.00
01990            -160.00     2000.00
01991            -160.00     1800.00
01992            -160.00     1800.00
01993            -120.00     1400.00
01994            -120.00     1000.00
01995            -120.00      600.00
01996            -120.00      600.00
01997            -120.00      200.00
01998             -40.00     -200.00
01999             -40.00     -200.00
02000              40.00     -600.00
02001             160.00     -800.00
02002             120.00    -1000.00
02003             120.00    -1200.00
02004              40.00    -1400.00
02005              40.00    -1800.00
02006             120.00    -2000.00
02007             360.00    -2200.00
02008            1080.00    -2800.00
02009             920.00    -3200.00
02010            -200.00    -3200.00
02011            -960.00    -3600.00
02012            -800.00    -3600.00
02013            -640.00    -3600.00
02014            -640.00    -4000.00
02015             280.00    -4400.00
02016             480.00    -4800.00
02017             320.00    -4600.00
02018             360.00    -5600.00
02019               0.00    -5200.00
02020             280.00    -5400.00
02021             280.00    -6200.00
02022             200.00    -6000.00
02023             280.00    -6600.00
02024              40.00    -6400.00
02025              40.00    -7000.00
02026              40.00    -7000.00
02027             160.00    -7400.00
02028              80.00    -7800.00
02029             160.00    -7600.00
02030             280.00    -8200.00
02031             200.00    -8200.00
02032             200.00    -8600.00
02033             200.00    -8800.00
02034             280.00    -9000.00
02035             280.00    -9200.00
02036             200.00    -9200.00
02037             160.00    -9800.00
02038             280.00    -9400.00
02039             280.00   -10000.00
02040             280.00   -10200.00
02041             320.00   -10200.00
02042             320.00   -10600.00
02043             320.00   -10800.00
02044             360.00   -11000.00
02045             360.00   -11000.00
02046             360.00   -11400.00
02047             360.00   -11400.00
02048             360.00   -11600.00
02049             400.00   -11800.00
02050             440.00   -11800.00
02051             440.00   -12200.00
02052             440.00   -12200.00
02053             480.00   -12400.00
02054             480.00   -12400.00
02055             480.00   -12600.00
02056             520.00   -12600.00
02057             600.00   -12800.00
02058             600.00   -13000.00
02059             600.00   -13200.00
02060             600.00   -13200.00
02061             640.00   -13400.00
02062             680.00   -13400.00
02063             720.00   -13400.00
02064             720.00   -13400.00
02065             760.00   -13800.00
02066             800.00   -13600.00
02067             800.00   -13800.00
02068             840.00   -13800.00
02069             920.00   -14000.00
02070             960.00   -14000.00
02071            1000.00   -14200.00
02072            1040.00   -14200.00
02073            1080.00   -14200.00
02074            1120.00   -14200.00
02075            1160.00   -14200.00
02076            1280.00   -14200.00
02077            1280.00   -14400.00
02078            1400.00   -14400.00
02079            1440.00   -14600.00
02080            1520.00   -14400.00
02081            1600.00   -14600.00
02082            1720.00   -14400.00
02083            1800.00   -14200.00
02084            1960.00   -14400.00
02085            2040.00   -14200.00
02086            2200.00   -14200.00
02087            2280.00   -14400.00
02088            2360.00   -14200.00
02089            2480.00   -14200.00
02090            2560.00   -14200.00
02091            2560.00   -14000.00
02092            2600.00   -14200.00
02093            2600.00   -14200.00
02094            2560.00   -14000.00
02095            2520.00   -14000.00
02096            2520.00   -13600.00
02097            2400.00   -13800.00
02098            2280.00   -13600.00
02099            2200.00   -13600.00
02100            2040.00   -13400.00
02101            1920.00   -13400.00
02102            1800.00   -13200.00
02103            1720.00   -13200.00
02104            1600.00   -13200.00
02105            1480.00   -13000.00
02106            1400.00   -13000.00
02107            1280.00   -12600.00
02108            1240.00   -12600.00
02109            1120.00   -12400.00
02110            1080.00   -12200.00
02111             960.00   -12200.00
02112             920.00   -12000.00
02113             840.00   -11800.00
02114             800.00   -11800.00
02115             760.00   -11800.00
02116             760.00   -11400.00
02117             680.00   -11400.00
02118             680.00   -11000.00
02119             640.00   -11000.00
02120             600.00   -10800.00
02121             600.00   -10400.00
02122             520.00   -10200.00
02123             520.00   -10200.00
02124             480.00   -10000.00
02125             440.00    -9800.00
02126             440.00    -9600.00
02127             440.00    -9400.00
02128             440.00    -9000.00
02129             440.00    -9200.00
02130             440.00    -8800.00
02131             360.00    -8600.00
02132             360.00    -8400.00
02133             320.00    -8200.00
02134             320.00    -7800.00
02135             320.00    -7600.00
02136             320.00    -7200.00
02137             320.00    -7200.00
02138             320.00    -7000.00
02139             280.00    -6800.00
02140             280.00    -6400.00
02141             280.00    -6400.00
02142             280.00    -6000.00
02143             280.00    -5800.00
02144             240.00    -5400.00
02145             200.00    -5200.00
02146             200.00    -5000.00
02147             160.00    -4600.00
02148             200.00    -4600.00
02149             160.00    -4200.00
02150             160.00    -3800.00
02151             160.00    -3800.00
02152             160.00    -3400.00
02153             160.00    -3200.00
02154             160.00    -3000.00
02155             120.00    -2800.00
02156             160.00    -2200.00
02157             120.00    -2000.00
02158             120.00    -1800.00
02159             120.00    -1600.00
02160             120.00    -1400.00
02161             120.00    -1000.00
02162              80.00     -800.00
02163             120.00     -600.00
02164              40.00     -200.00
02165              40.00        0.00
02166              40.00      400.00
02167             120.00      600.00
02168             200.00      800.00
02169             240.00     1200.00
02170             160.00     1200.00
02171             160.00     1400.00
02172             120.00     1800.00
02173             200.00     2000.00
02174             680.00     2400.00
02175            1400.00     2800.00
02176             640.00     2800.00
02177            -800.00     3000.00
02178           -1280.00     3400.00
02179           -1040.00     3600.00
02180           -1000.00     4000.00
02181             280.00     4200.00
02182             680.00     4200.00
02183             120.00     4800.00
02184             280.00     4800.00
02185            -200.00     5000.00
02186             -40.00     5800.00
02187             -40.00     5200.00
02188               0.00     6200.00
02189             120.00     6200.00
02190            -200.00     6000.00
02191            -120.00     7000.00
02192            -320.00     6600.00
02193            -120.00     7400.00
02194             -40.00     7400.00
02195            -160.00     7600.00
02196            -120.00     7800.00
02197            -160.00     7800.00
02198            -120.00     8600.00
02199            -320.00     8200.00
02200            -120.00     9000.00
02201            -200.00     9000.00
02202            -200.00     9000.00
02203            -280.00     9400.00
02204            -240.00     9600.00
02205            -280.00     9800.00
02206            -280.00     9800.00
02207            -200.00    10400.00
02208            -320.00    10200.00
02209            -320.00    10800.00
02210            -320.00    10800.00
02211            -320.00    11000.00
02212            -360.00    11000.00
02213            -320.00    11400.00
02214            -440.00    11400.00
02215            -440.00    11600.00
02216            -400.00    12000.00
02217            -480.00    12000.00
02218            -440.00    12200.00
02219            -440.00    12200.00
02220            -480.00    12400.00
02221            -520.00    12400.00
02222            -520.00    12600.00
02223            -520.00    12600.00
02224            -600.00    13000.00
02225            -520.00    13000.00
02226            -640.00    13200.00
02227            -640.00    13200.00
02228            -640.00    13400.00
02229            -640.00    13400.00
02230            -680.00    13400.00
02231            -720.00    13800.00
02232            -800.00    13800.00
02233            -840.00    13800.00
02234            -840.00    14000.00
02235            -840.00    14000.00
02236            -840.00    14000.00
02237            -920.00    14200.00
02238            -960.00    14200.00
02239           -1040.00    14200.00
02240           -1080.00    14200.00
02241           -1120.00    14400.00
02242           -1160.00    14200.00
02243           -1240.00    14400.00
02244           -1320.00    14200.00
02245           -1440.00    14600.00
02246           -1480.00    14600.00
02247           -1560.00    14200.00
02248           -1640.00    14200.00
02249           -1720.00    14400.00
02250           -1800.00    14400.00
02251           -1920.00    14600.00
02252           -2080.00    14400.00
02253           -2200.00    14600.00
02254           -2280.00    14400.00
02255           -2400.00    14400.00
02256           -2440.00    14200.00
02257           -2520.00    14200.00
02258           -2600.00    14200.00
02259           -2600.00    14200.00
02260           -2600.00    14200.00
02261           -2600.00    14000.00
02262           -2560.00    14000.00
02263           -2520.00    13800.00
02264           -2400.00    13800.00
02265           -2320.00    13800.00
02266           -2240.00    13800.00
02267           -2120.00    13400.00
02268           -1960.00    13400.00
02269           -1840.00    13400.00
02270           -1760.00    13200.00
02271           -1600.00    13200.00
02272           -1560.00    13000.00
02273           -1440.00    13000.00
02274           -1320.00    12800.00
02275           -1280.00    12600.00
02276           -1160.00    12400.00
02277           -1080.00    12400.00
02278           -1000.00    12200.00
02279            -960.00    12200.00
02280            -920.00    12000.00
02281            -840.00    11800.00
02282            -800.00    11600.00
02283            -720.00    11600.00
02284            -720.00    11200.00
02285            -680.00    11200.00
02286            -680.00    11000.00
02287            -640.00    10800.00
02288            -600.00    10600.00
02289            -520.00    10400.00
02290            -520.00    10200.00
02291            -520.00    10000.00
02292            -520.00     9800.00
02293            -520.00     9800.00
02294            -480.00     9400.00
02295            -480.00     9200.00
02296            -440.00     9000.00
02297            -400.00     8800.00
02298            -440.00     8600.00
02299            -440.00     8200.00
02300            -360.00     8200.00
02301            -400.00     7800.00
02302            -320.00     7800.00
02303            -320.00     7600.00
02304            -320.00     7400.00
02305            -320.00     7000.00
02306            -320.00     6800.00
02307            -320.00     6600.00
02308            -320.00     6200.00
02309            -280.00     6000.00
02310            -280.00     5800.00
02311            -280.00     5600.00
02312            -280.00     5400.00
02313            -280.00     5000.00
02314            -200.00     4800.00
02315            -200.00     4600.00
02316            -200.00     4200.00
02317            -200.00     3800.00
02318            -200.00     3800.00
02319            -200.00     3600.00
02320            -200.00     3400.00
02321            -160.00     3000.00
02322            -160.00     2800.00
02323            -160.00     2400.00
02324            -160.00     2200.00
02325            -160.00     2000.00
02326            -120.00     1600.00
02327            -120.00     1400.00
02328            -120.00     1200.00
02329            -120.00     1000.00
02330            -120.00      600.00
02331             -40.00      400.00
02332             -80.00      200.00
02333             -40.00     -200.00
02334               0.00     -600.00
02335             120.00     -600.00
02336             160.00    -1000.00
02337             120.00    -1200.00
02338              40.00    -1400.00
02339               0.00    -1800.00
02340              40.00    -1800.00
02341             200.00    -2200.00
02342             840.00    -2400.00
02343            1120.00    -3000.00
02344             160.00    -3200.00
02345            -840.00    -3600.00
02346            -920.00    -3800.00
02347            -640.00    -3600.00
02348            -680.00    -4000.00
02349             -40.00    -4400.00
02350             600.00    -4800.00
02351             280.00    -4600.00
02352             440.00    -5400.00
02353             120.00    -5400.00
02354             120.00    -5200.00
02355             320.00    -6200.00
02356             160.00    -5800.00
02357             280.00    -6600.00
02358             120.00    -6400.00
02359              40.00    -6800.00
02360              40.00    -7000.00
02361             160.00    -7000.00
02362             120.00    -7800.00
02363             120.00    -7400.00
02364             280.00    -8200.00
02365             200.00    -8400.00
02366             200.00    -8200.00
02367             200.00    -9000.00
02368             280.00    -8800.00
02369             280.00    -9200.00
02370             280.00    -9200.00
02371             200.00    -9400.00
02372             240.00    -9800.00
02373             320.00    -9800.00
02374             280.00   -10200.00
02375             320.00   -10400.00
02376             320.00   -10600.00
02377             320.00   -10600.00
02378             320.00   -10800.00
02379             360.00   -11000.00
02380             320.00   -11000.00
02381             360.00   -11400.00
02382             400.00   -11400.00
02383             360.00   -11800.00
02384             440.00   -11800.00
02385             440.00   -12000.00
02386             440.00   -12200.00
02387             480.00   -12200.00
02388             480.00   -12400.00
02389             520.00   -12600.00
02390             520.00   -12600.00
02391             600.00   -13000.00
02392             600.00   -13000.00
02393             600.00   -13000.00
02394             640.00   -13200.00
02395             640.00   -13200.00
02396             640.00   -13400.00
02397             720.00   -13400.00
02398             760.00   -13400.00
02399             720.00   -13800.00
02400             760.00   -13600.00
02401             760.00   -13800.00
02402             840.00   -13800.00
02403             840.00   -13800.00
02404             960.00   -14000.00
02405             960.00   -14000.00
02406            1000.00   -14000.00
02407            1040.00   -14200.00
02408            1080.00   -14200.00
02409            1120.00   -14200.00
02410            1200.00   -14400.00
02411            1280.00   -14600.00
02412            1360.00   -14600.00
02413            1440.00   -14600.00
02414            1480.00   -14400.00
02415            1600.00   -14600.00
02416            1720.00   -14600.00
02417            1800.00   -14400.00
02418            1920.00   -14600.00
02419            2040.00   -14400.00
02420            2120.00   -14200.00
02421            2240.00   -14200.00
02422            2360.00   -14200.00
02423            2440.00   -14200.00
02424            2520.00   -14200.00
02425            2560.00   -14200.00
02426            2560.00   -14200.00
02427            2600.00   -14000.00
02428            2560.00   -14000.00
02429            2560.00   -13800.00
02430            2520.00   -13800.00
02431            2440.00   -13800.00
02432            2280.00   -13600.00
02433            2200.00   -13600.00
02434            2120.00   -13400.00
02435            1960.00   -13400.00
02436            1880.00   -13400.00
02437            1760.00   -13000.00
02438            1640.00   -13200.00
02439            1560.00   -13000.00
02440            1440.00   -13000.00
02441            1320.00   -13000.00
02442            1240.00   -12600.00
02443            1120.00   -12400.00
02444            1080.00   -12400.00
02445            1000.00   -12200.00
02446             960.00   -12200.00
02447             880.00   -11800.00
02448             800.00   -11800.00
02449             760.00   -11800.00
02450             760.00   -11400.00
02451             680.00   -11400.00
02452             680.00   -11000.00
02453             640.00   -11000.00
02454             600.00   -10800.00
02455             600.00   -10600.00
02456             600.00   -10600.00
02457             520.00   -10200.00
02458             480.00   -10000.00
02459             480.00   -10000.00
02460             480.00    -9600.00
02461             440.00    -9400.00
02462             440.00    -9200.00
02463             440.00    -9000.00
02464             440.00    -8800.00
02465             360.00    -8600.00
02466             360.00    -8400.00
02467             320.00    -8200.00
02468             320.00    -8200.00
02469             320.00    -7800.00
02470             320.00    -7400.00
02471             320.00    -7200.00
02472             320.00    -7000.00
02473             280.00    -6800.00
02474             280.00    -6600.00
02475             240.00    -6400.00
02476             240.00    -6000.00
02477             200.00    -5800.00
02478             280.00    -5600.00
02479             200.00    -5400.00
02480             200.00    -5200.00
02481             200.00    -5000.00
02482             200.00    -4600.00
02483             160.00    -4400.00
02484             200.00    -4000.00
02485             160.00    -3800.00
02486             200.00    -3400.00
02487             160.00    -3400.00
02488             160.00    -3000.00
02489             120.00    -2800.00
02490             120.00    -2600.00
02491             120.00    -2400.00
02492             120.00    -2000.00
02493             120.00    -1800.00
02494             120.00    -1400.00
02495              80.00    -1400.00
02496             120.00     -800.00
02497             120.00     -600.00
02498             120.00     -400.00
02499              40.00        0.00
02500              40.00      200.00
02501             120.00      600.00
02502             200.00      600.00
02503             280.00     1000.00
02504             200.00     1200.00
02505             160.00     1400.00
02506             120.00     1800.00
02507             120.00     1800.00
02508             480.00     2200.00
02509            1280.00     2800.00
02510            1080.00     2800.00
02511            -360.00     3200.00
02512           -1280.00     3200.00
02513           -1080.00     3600.00
02514           -1080.00     3800.00
02515            -280.00     4200.00
02516             800.00     4200.00
02517             200.00     4600.00
02518             240.00     4800.00
02519               0.00     5000.00
02520            -160.00     6000.00
02521              40.00     5400.00
02522            -120.00     5800.00
02523             200.00     6400.00
02524            -160.00     6000.00
02525            -120.00     7000.00
02526            -280.00     6800.00
02527            -280.00     7000.00
02528             -40.00     7400.00
02529            -160.00     7400.00
02530            -120.00     7800.00
02531            -160.00     7600.00
02532             -80.00     8600.00
02533            -280.00     8200.00
02534            -200.00     8600.00
02535            -160.00     9000.00
02536            -240.00     9000.00
02537            -240.00     9200.00
02538            -280.00     9400.00
02539            -280.00     9800.00
02540            -360.00     9800.00
02541            -200.00    10200.00
02542            -320.00    10200.00
02543            -280.00    10400.00
02544            -320.00    10800.00
02545            -360.00    10800.00
02546            -360.00    11000.00
02547            -360.00    11400.00
02548            -360.00    11400.00
02549            -440.00    11600.00
02550            -440.00    11800.00
02551            -480.00    12000.00
02552            -440.00    12000.00
02553            -440.00    12200.00
02554            -480.00    12400.00
02555            -520.00    12400.00
02556            -520.00    12600.00
02557            -520.00    13000.00
02558            -520.00    13000.00
02559            -600.00    13000.00
02560            -600.00    13200.00
02561            -640.00    13200.00
02562            -640.00    13400.00
02563            -640.00    13400.00
02564            -680.00    13600.00
02565            -680.00    13400.00
02566            -760.00    13800.00
02567            -800.00    13800.00
02568            -840.00    13800.00
02569            -840.00    14000.00
02570            -880.00    14000.00
02571            -920.00    14200.00
02572            -960.00    14200.00
02573           -1000.00    14200.00
02574           -1080.00    14200.00
02575           -1120.00    14400.00
02576           -1160.00    14200.00
02577           -1240.00    14600.00
02578           -1280.00    14600.00
02579           -1320.00    14600.00
02580           -1440.00    14600.00
02581           -1480.00    14400.00
02582           -1600.00    14600.00
02583           -1720.00    14600.00
02584           -1760.00    14600.00
02585           -1920.00    14600.00
02586           -2040.00    14400.00
02587           -2120.00    14400.00
02588           -2240.00    14400.00
02589           -2360.00    14200.00
02590           -2400.00    14200.00
02591           -2480.00    14200.00
02592           -2560.00    14200.00
02593           -2600.00    14200.00
02594           -2600.00    14200.00
02595           -2600.00    14000.00
02596           -2560.00    14000.00
02597           -2520.00    13800.00
02598           -2440.00    13800.00
02599           -2360.00    13800.00
02600           -2280.00    13800.00
02601           -2200.00    13600.00
02602           -2040.00    13600.00
02603           -1920.00    13400.00
02604           -1800.00    13400.00
02605           -1680.00    13400.00
02606           -1600.00    13000.00
02607           -1480.00    13000.00
02608           -1400.00    13000.00
02609           -1280.00    12800.00
02610           -1200.00    12600.00
02611           -1160.00    12400.00
02612           -1000.00    12200.00
02613           -1000.00    12200.00
02614            -960.00    12000.00
02615            -840.00    11800.00
02616            -840.00    11600.00
02617            -800.00    11600.00
02618            -720.00    11400.00
02619            -680.00    11200.00
02620            -680.00    11000.00
02621            -680.00    10800.00
02622            -600.00    10600.00
02623            -600.00    10600.00
02624            -520.00    10400.00
02625            -520.00    10000.00
02626            -520.00     9800.00
02627            -520.00     9800.00
02628            -480.00     9400.00
02629            -480.00     9400.00
02630            -440.00     9200.00
02631            -440.00     8800.00
02632            -400.00     8600.00
02633            -360.00     8400.00
02634            -400.00     8400.00
02635            -360.00     7800.00
02636            -360.00     7800.00
02637            -320.00     7600.00
02638            -320.00     7400.00
02639            -320.00     7000.00
02640            -320.00     6800.00
02641            -320.00     6800.00
02642            -320.00     6200.00
02643            -280.00     6200.00
02644            -320.00     5800.00
02645            -200.00     5800.00
02646            -280.00     5400.00
02647            -200.00     5200.00
02648            -280.00     5000.00
02649            -200.00     4600.00
02650            -200.00     4400.00
02651            -200.00     4200.00
02652            -200.00     3800.00
02653            -200.00     3600.00
02654            -200.00     3400.00
02655            -200.00     3200.00
02656            -160.00     2800.00
02657            -160.00     2600.00
02658            -160.00     2400.00
02659            -160.00     2000.00
02660            -160.00     1800.00
02661            -160.00     1400.00
02662            -160.00     1200.00
02663            -120.00     1000.00
02664            -120.00      600.00
02665             -40.00      400.00
02666            -120.00      200.00
02667             -40.00     -200.00
02668             -40.00     -400.00
02669             120.00     -600.00
02670             160.00     -800.00
02671             120.00    -1200.00
02672              40.00    -1400.00
02673              40.00    -1400.00
02674              40.00    -1800.00
02675             160.00    -2000.00
02676             600.00    -2400.00
02677            1200.00    -2800.00
02678             520.00    -3000.00
02679            -640.00    -3400.00
02680            -960.00    -3600.00
02681            -720.00    -3600.00
02682            -680.00    -3800.00
02683            -440.00    -4200.00
02684             600.00    -4600.00
02685             320.00    -4600.00
02686             360.00    -5000.00
02687             280.00    -5600.00
02688               0.00    -5200.00
02689             320.00    -6000.00
02690             160.00    -6000.00
02691             280.00    -6200.00
02692             160.00    -6600.00
02693              40.00    -6600.00
02694              40.00    -7200.00
02695             120.00    -6800.00
02696             160.00    -7600.00
02697              80.00    -7600.00
02698             280.00    -7800.00
02699             280.00    -8400.00
02700             200.00    -8200.00
02701             200.00    -8600.00
02702             200.00    -8600.00
02703             280.00    -9000.00
02704             280.00    -9200.00
02705             200.00    -9400.00
02706             200.00    -9800.00
02707             320.00    -9800.00
02708             280.00   -10200.00
02709             280.00   -10200.00
02710             320.00   -10400.00
02711             320.00   -10600.00
02712             320.00   -11000.00
02713             360.00   -10800.00
02714             360.00   -11000.00
02715             320.00   -11600.00
02716             400.00   -11400.00
02717             360.00   -11600.00
02718             360.00   -11800.00
02719             440.00   -12200.00
02720             480.00   -12200.00
02721             440.00   -12400.00
02722             480.00   -12400.00
02723             480.00   -12600.00
02724             480.00   -12600.00
02725             520.00   -12800.00
02726             520.00   -13000.00
02727             600.00   -13200.00
02728             600.00   -13000.00
02729             640.00   -13200.00
02730             640.00   -13400.00
02731             680.00   -13400.00
02732             680.00   -13800.00
02733             720.00   -13600.00
02734             760.00   -13600.00
02735             760.00   -13800.00
02736             800.00   -13800.00
02737             840.00   -14000.00
02738             920.00   -14000.00
02739             960.00   -14000.00
02740             960.00   -14200.00
02741            1000.00   -14200.00
02742            1080.00   -14200.00
02743            1080.00   -14200.00
02744            1160.00   -14200.00
02745            1240.00   -14200.00
02746            1320.00   -14400.00
02747            1400.00   -14400.00
02748            1440.00   -14600.00
02749            1560.00   -14200.00
02750            1680.00   -14600.00
02751            1760.00   -14600.00
02752            1920.00   -14400.00
02753            2000.00   -14400.00
02754            2080.00   -14600.00
02755            2200.00   -14200.00
02756            2320.00   -14200.00
02757            2400.00   -14200.00
02758            2520.00   -14200.00
02759            2560.00   -14200.00
02760            2600.00   -14000.00
02761            2600.00   -14000.00
02762            2560.00   -14200.00
02763            2560.00   -13800.00
02764            2520.00   -14000.00
02765            2440.00   -13800.00
02766            2360.00   -13800.00
02767            2240.00   -13600.00
02768            2120.00   -13600.00
02769            2040.00   -13400.00
02770            1920.00   -13400.00
02771            1800.00   -13200.00
02772            1720.00   -13200.00
02773            1560.00   -13000.00
02774            1480.00   -13000.00
02775            1320.00   -12600.00
02776            1280.00   -12600.00
02777            1200.00   -12400.00
02778            1080.00   -12400.00
02779            1040.00   -12400.00
02780             960.00   -12200.00
02781             920.00   -12200.00
02782             840.00   -11800.00
02783             800.00   -11800.00
02784             760.00   -11600.00
02785             760.00   -11400.00
02786             680.00   -11200.00
02787             640.00   -11000.00
02788             600.00   -10800.00
02789             600.00   -10800.00
02790             560.00   -10400.00
02791             520.00   -10200.00
02792             520.00   -10200.00
02793             520.00    -9800.00
02794             480.00    -9800.00
02795             440.00    -9400.00
02796             440.00    -9200.00
02797             400.00    -9000.00
02798             440.00    -9000.00
02799             400.00    -8600.00
02800             360.00    -8400.00
02801             360.00    -8400.00
02802             320.00    -8200.00
02803             320.00    -7800.00
02804             320.00    -7600.00
02805             320.00    -7400.00
02806             320.00    -7000.00
02807             280.00    -7000.00
02808             280.00    -6600.00
02809             280.00    -6400.00
02810             280.00    -6200.00
02811             280.00    -6000.00
02812             200.00    -5800.00
02813             240.00    -5400.00
02814             200.00    -5200.00
02815             160.00    -5000.00
02816             200.00    -4800.00
02817             200.00    -4400.00
02818             160.00    -4200.00
02819             160.00    -3800.00
02820             160.00    -3600.00
02821             160.00    -3400.00
02822             120.00    -3000.00
02823             120.00    -2800.00
02824             120.00    -2600.00
02825             120.00    -2200.00
02826             160.00    -2000.00
02827             120.00    -1800.00
02828             120.00    -1400.00
02829             120.00    -1400.00
02830             120.00     -800.00
02831             120.00     -600.00
02832              80.00     -400.00
02833             120.00     -200.00
02834              80.00      200.00
02835             120.00      600.00
02836             160.00      600.00
02837             280.00     1000.00
02838             240.00     1000.00
02839             200.00     1400.00
02840             160.00     1600.00
02841             160.00     2000.00
02842             320.00     2200.00
02843            1080.00     2600.00
02844            1320.00     2800.00
02845             120.00     3000.00
02846           -1120.00     3200.00
02847           -1240.00     3400.00
02848           -1000.00     3800.00
02849            -680.00     4000.00
02850             680.00     4200.00
02851             440.00     4600.00
02852             160.00     4600.00
02853             120.00     4600.00
02854            -280.00     5600.00
02855              40.00     5800.00
02856             -80.00     5200.00
02857             120.00     6600.00
02858               0.00     5800.00
02859            -200.00     6600.00
02860            -160.00     7000.00
02861            -320.00     6800.00
02862               0.00     7400.00
02863            -160.00     7200.00
02864            -120.00     7800.00
02865            -160.00     7600.00
02866            -120.00     8200.00
02867            -200.00     8400.00
02868            -280.00     8400.00
02869            -120.00     9000.00
02870            -280.00     8800.00
02871            -200.00     9400.00
02872            -320.00     9400.00
02873            -240.00     9800.00
02874            -360.00     9800.00
02875            -200.00    10200.00
02876            -280.00    10200.00
02877            -320.00    10200.00
02878            -320.00    10600.00
02879            -360.00    11000.00
02880            -320.00    10800.00
02881            -360.00    11400.00
02882            -360.00    11400.00
02883            -480.00    11600.00
02884            -440.00    11800.00
02885            -440.00    12000.00
02886            -480.00    12000.00
02887            -440.00    12200.00
02888            -480.00    12400.00
02889            -520.00    12400.00
02890            -520.00    12600.00
02891            -480.00    12800.00
02892            -560.00    13000.00
02893            -600.00    13000.00
02894            -600.00    13200.00
02895            -640.00    13200.00
02896            -640.00    13400.00
02897            -640.00    13400.00
02898            -640.00    13600.00
02899            -680.00    13600.00
02900            -720.00    13800.00
02901            -800.00    13800.00
02902            -800.00    13800.00
02903            -840.00    13800.00
02904            -840.00    14000.00
02905            -920.00    14200.00
02906            -920.00    14200.00
02907            -960.00    14200.00
02908           -1040.00    14400.00
02909           -1080.00    14200.00
02910           -1120.00    14400.00
02911           -1160.00    14200.00
02912           -1240.00    14400.00
02913           -1320.00    14600.00
02914           -1400.00    14600.00
02915           -1480.00    14400.00
02916           -1560.00    14600.00
02917           -1720.00    14600.00
02918           -1760.00    14600.00
02919           -1840.00    14600.00
02920           -1960.00    14600.00
02921           -2120.00    14600.00
02922           -2200.00    14400.00
02923           -2320.00    14200.00
02924           -2400.00    14600.00
02925           -2480.00    14400.00
02926           -2560.00    14200.00
02927           -2600.00    14200.00
02928           -2600.00    14200.00
02929           -2600.00    14000.00
02930           -2600.00    14000.00
02931           -2560.00    14000.00
02932           -2440.00    13800.00
02933           -2440.00    13800.00
02934           -2280.00    13800.00
02935           -2200.00    13800.00
02936           -2080.00    13400.00
02937           -1960.00    13400.00
02938           -1800.00    13400.00
02939           -1720.00    13200.00
02940           -1600.00    13200.00
02941           -1520.00    13000.00
02942           -1440.00    13000.00
02943           -1320.00    13000.00
02944           -1240.00    12600.00
02945           -1160.00    12400.00
02946           -1040.00    12400.00
02947           -1000.00    12200.00
02948            -960.00    12000.00
02949            -920.00    12000.00
02950            -840.00    11800.00
02951            -800.00    11600.00
02952            -760.00    11400.00
02953            -680.00    11400.00
02954            -680.00    11000.00
02955            -640.00    10800.00
02956            -640.00    10600.00
02957            -600.00    10400.00
02958            -520.00    10400.00
02959            -520.00    10200.00
02960            -520.00    10000.00
02961            -520.00     9800.00
02962            -480.00     9600.00
02963            -480.00     9400.00
02964            -440.00     9200.00
02965            -440.00     9200.00
02966            -440.00     9000.00
02967            -360.00     8600.00
02968            -360.00     8400.00
02969            -360.00     8200.00
02970            -360.00     7800.00
02971            -320.00     7600.00
02972            -320.00     7400.00
02973            -320.00     7200.00
02974            -320.00     6800.00
02975            -320.00     6800.00
02976            -320.00     6600.00
02977            -280.00     6200.00
02978            -280.00     6200.00
02979            -240.00     5800.00
02980            -280.00     5600.00
02981            -280.00     5200.00
02982            -280.00     5000.00
02983            -240.00     4600.00
02984            -200.00     4400.00
02985            -200.00     4200.00
02986            -200.00     3800.00
02987            -200.00     3800.00
02988            -200.00     3400.00
02989            -200.00     3200.00
02990            -160.00     3000.00
02991            -160.00     2800.00
02992            -160.00     2200.00
02993            -160.00     2200.00
02994            -160.00     1800.00
02995            -160.00     1600.00
02996            -120.00     1200.00
02997            -120.00     1000.00
02998             -80.00      600.00
02999            -120.00      600.00
03000            -120.00      200.00
03001            -120.00     -200.00
03002             -40.00     -400.00
03003               0.00     -600.00
03004             160.00     -600.00
03005             160.00    -1000.00
03006              40.00    -1200.00
03007              40.00    -1400.00
03008              40.00    -1800.00
03009             120.00    -2000.00
03010             440.00    -2200.00
03011            1080.00    -2600.00
03012             840.00    -3000.00
03013            -280.00    -3200.00
03014            -960.00    -3600.00
03015            -800.00    -3600.00
03016            -640.00    -3800.00
03017            -640.00    -3800.00
03018             320.00    -4600.00
03019             480.00    -4600.00
03020             320.00    -4400.00
03021             400.00    -5400.00
03022              40.00    -5200.00
03023             280.00    -5400.00
03024             240.00    -6200.00
03025             200.00    -6000.00
03026             280.00    -6600.00
03027              40.00    -6600.00
03028              40.00    -7200.00
03029              80.00    -7000.00
03030             160.00    -7400.00
03031             120.00    -7800.00
03032             200.00    -7400.00
03033             320.00    -8200.00
03034             160.00    -8200.00
03035             280.00    -8600.00
03036             200.00    -8800.00
03037             280.00    -9000.00
03038             280.00    -9200.00
03039             200.00    -9200.00
03040             160.00    -9600.00
03041             280.00    -9400.00
03042             280.00   -10000.00
03043             280.00   -10000.00
03044             320.00   -10400.00
03045             320.00   -10600.00
03046             320.00   -10800.00
03047             360.00   -11000.00
03048             360.00   -11200.00
03049             320.00   -11400.00
03050             360.00   -11400.00
03051             400.00   -11600.00
03052             360.00   -11800.00
03053             440.00   -11800.00
03054             440.00   -12200.00
03055             440.00   -12200.00
03056             480.00   -12400.00
03057             480.00   -12600.00
03058             480.00   -12600.00
03059             520.00   -13000.00
03060             520.00   -13000.00
03061             520.00   -13000.00
03062             520.00   -13000.00
03063             640.00   -13200.00
03064             640.00   -13200.00
03065             640.00   -13400.00
03066             680.00   -13400.00
03067             760.00   -13800.00
03068             720.00   -13600.00
03069             760.00   -13800.00
03070             800.00   -13800.00
03071             800.00   -14000.00
03072             920.00   -14000.00
03073             960.00   -14000.00
03074             960.00   -14200.00
03075            1000.00   -14200.00
03076            1080.00   -14200.00
03077            1120.00   -14200.00
03078            1160.00   -14400.00
03079            1240.00   -14400.00
03080            1280.00   -14600.00
03081            1400.00   -14400.00
03082            1440.00   -14600.00
03083            1480.00   -14400.00
03084            1600.00   -14200.00
03085            1720.00   -14400.00
03086            1840.00   -14400.00
03087            1960.00   -14400.00
03088            2080.00   -14200.00
03089            2200.00   -14200.00
03090            2280.00   -14200.00
03091            2400.00   -14200.00
03092            2480.00   -14200.00
03093            2560.00   -14200.00
03094            2560.00   -14200.00
03095            2600.00   -14000.00
03096            2560.00   -14000.00
03097            2600.00   -14000.00
03098            2520.00   -13800.00
03099            2480.00   -13600.00
03100            2400.00   -13800.00
03101            2280.00   -13600.00
03102            2200.00   -13600.00
03103            2040.00   -13400.00
03104            1920.00   -13400.00
03105            1840.00   -13400.00
03106            1720.00   -13000.00
03107            1600.00   -13200.00
03108            1560.00   -13000.00
03109            1360.00   -13000.00
03110            1280.00   -12600.00
03111            1240.00   -12600.00
03112            1120.00   -12400.00
03113            1080.00   -12400.00
03114             960.00   -12200.00
03115             920.00   -12000.00
03116             840.00   -11800.00
03117             760.00   -11800.00
03118             800.00   -11600.00
03119             760.00   -11400.00
03120             680.00   -11400.00
03121             640.00   -11000.00
03122             600.00   -11000.00
03123             600.00   -10800.00
03124             520.00   -10600.00
03125             520.00   -10600.00
03126             520.00   -10200.00
03127             480.00   -10200.00
03128             440.00    -9800.00
03129             440.00    -9600.00
03130             400.00    -9400.00
03131             440.00    -9200.00
03132             440.00    -9000.00
03133             360.00    -9000.00
03134             320.00    -8600.00
03135             320.00    -8400.00
03136             320.00    -8200.00
03137             320.00    -7800.00
03138             320.00    -7600.00
03139             320.00    -7200.00
03140             320.00    -7200.00
03141             280.00    -7000.00
03142             280.00    -6600.00
03143             280.00    -6600.00
03144             280.00    -6200.00
03145             280.00    -6200.00
03146             200.00    -5800.00
03147             200.00    -5400.00
03148             200.00    -5200.00
03149             200.00    -5000.00
03150             200.00    -4800.00
03151             200.00    -4600.00
03152             200.00    -4200.00
03153             160.00    -4000.00
03154             160.00    -3600.00
03155             160.00    -3400.00
03156             160.00    -3200.00
03157             120.00    -2800.00
03158             120.00    -2600.00
03159             160.00    -2400.00
03160             160.00    -2200.00
03161             120.00    -1800.00
03162             120.00    -1600.00
03163             120.00    -1400.00
03164             120.00     -800.00
03165             120.00     -800.00
03166             120.00     -400.00
03167             120.00     -200.00
03168              80.00        0.00
03169              40.00      400.00
03170             120.00      400.00
03171             240.00     1000.00
03172             280.00     1000.00
03173             200.00     1200.00
03174             160.00     1600.00
03175             120.00     1800.00
03176             200.00     2000.00
03177             760.00     2600.00
03178            1440.00     3000.00
03179             600.00     3000.00
03180            -840.00     3000.00
03181           -1280.00     3400.00
03182           -1000.00     3800.00
03183            -960.00     3800.00
03184             360.00     4200.00
03185             640.00     4400.00
03186             120.00     4600.00
03187             280.00     4600.00
03188            -200.00     5200.00
03189               0.00     5800.00
03190             -40.00     5200.00
03191               0.00     6200.00
03192             120.00     6200.00
03193            -200.00     6200.00
03194            -120.00     7000.00
03195            -320.00     6600.00
03196            -120.00     7400.00
03197            -120.00     7000.00
03198            -160.00     7800.00
03199            -160.00     7800.00
03200            -200.00     7800.00
03201            -160.00     8400.00
03202            -280.00     8200.00
03203            -120.00     9000.00
03204            -240.00     8800.00
03205            -240.00     9000.00
03206            -280.00     9400.00
03207            -280.00     9800.00
03208            -320.00     9800.00
03209            -320.00     9800.00
03210            -200.00    10200.00
03211            -320.00    10200.00
03212            -280.00    10600.00
03213            -360.00    10800.00
03214            -360.00    10800.00
03215            -360.00    11000.00
03216            -320.00    11200.00
03217            -440.00    11600.00
03218            -440.00    11600.00
03219            -400.00    12000.00
03220            -440.00    12000.00
03221            -440.00    12200.00
03222            -440.00    12200.00
03223            -520.00    12400.00
03224            -520.00    12400.00
03225            -520.00    13000.00
03226            -520.00    12800.00
03227            -520.00    13000.00
03228            -600.00    13000.00
03229            -600.00    13200.00
03230            -640.00    13200.00
03231            -640.00    13400.00
03232            -640.00    13400.00
03233            -680.00    13600.00
03234            -680.00    13600.00
03235            -760.00    13800.00
03236            -840.00    13800.00
03237            -840.00    13800.00
03238            -840.00    14200.00
03239            -840.00    14000.00
03240            -960.00    14200.00
03241            -960.00    14200.00
03242           -1000.00    14200.00
03243           -1080.00    14200.00
03244           -1120.00    14400.00
03245           -1160.00    14400.00
03246           -1240.00    14200.00
03247           -1280.00    14600.00
03248           -1400.00    14400.00
03249           -1440.00    14400.00
03250           -1560.00    14600.00
03251           -1600.00    14400.00
03252           -1760.00    14400.00
03253           -1800.00    14400.00
03254           -1960.00    14400.00
03255           -2080.00    14600.00
03256           -2200.00    14400.00
03257           -2280.00    14400.00
03258           -2400.00    14200.00
03259           -2440.00    14200.00
03260           -2560.00    14200.00
03261           -2560.00    14200.00
03262           -2600.00    14200.00
03263           -2640.00    14200.00
03264           -2600.00    14000.00
03265           -2560.00    14000.00
03266           -2520.00    13800.00
03267           -2440.00    13800.00
03268           -2280.00    13800.00
03269           -2240.00    13800.00
03270           -2120.00    13600.00
03271           -2000.00    13400.00
03272           -1880.00    13400.00
03273           -1760.00    13200.00
03274           -1640.00    13200.00
03275           -1560.00    13200.00
03276           -1480.00    13000.00
03277           -1320.00    13000.00
03278           -1280.00    12800.00
03279           -1160.00    12600.00
03280           -1080.00    12400.00
03281           -1000.00    12400.00
03282            -960.00    12200.00
03283            -920.00    12000.00
03284            -840.00    11800.00
03285            -800.00    11600.00
03286            -760.00    11400.00
03287            -680.00    11400.00
03288            -680.00    11400.00
03289            -680.00    10800.00
03290            -640.00    10800.00
03291            -520.00    10600.00
03292            -520.00    10400.00
03293            -520.00    10400.00
03294            -520.00    10000.00
03295            -480.00     9800.00
03296            -480.00     9800.00
03297            -440.00     9400.00
03298            -440.00     9200.00
03299            -400.00     9000.00
03300            -400.00     8800.00
03301            -400.00     8600.00
03302            -440.00     8400.00
03303            -360.00     8200.00
03304            -360.00     7800.00
03305            -320.00     7800.00
03306            -320.00     7400.00
03307            -320.00     7400.00
03308            -320.00     7000.00
03309            -320.00     6800.00
03310            -320.00     6600.00
03311            -280.00     6200.00
03312            -280.00     6200.00
03313            -280.00     5800.00
03314            -240.00     5600.00
03315            -280.00     5200.00
03316            -240.00     5000.00
03317            -200.00     5000.00
03318            -200.00     4600.00
03319            -200.00     4400.00
03320            -200.00     4000.00
03321            -200.00     3800.00
03322            -200.00     3400.00
03323            -200.00     3400.00
03324            -200.00     3000.00
03325            -200.00     2800.00
03326            -160.00     2200.00
03327            -160.00     2200.00
03328            -160.00     1800.00
03329            -160.00     1600.00
03330            -160.00     1400.00
03331            -120.00     1000.00
03332            -120.00      800.00
03333            -120.00      600.00
03334             -40.00      200.00
03335            -120.00     -200.00
03336             -40.00     -200.00
03337               0.00     -600.00
03338             120.00     -600.00
03339             120.00    -1000.00
03340             120.00    -1200.00
03341              40.00    -1400.00
03342               0.00    -1600.00
03343              40.00    -2000.00
03344             280.00    -2200.00
03345             920.00    -2200.00
03346            1080.00    -3000.00
03347             120.00    -3200.00
03348            -840.00    -3600.00
03349            -880.00    -3800.00
03350            -640.00    -3800.00
03351            -680.00    -4000.00
03352               0.00    -4400.00
03353             600.00    -4600.00
03354             280.00    -4400.00
03355             440.00    -5200.00
03356             120.00    -5400.00
03357             160.00    -5200.00
03358             320.00    -6000.00
03359             160.00    -6000.00
03360             320.00    -6600.00
03361             120.00    -6400.00
03362              40.00    -6800.00
03363              40.00    -7000.00
03364             120.00    -7000.00
03365             160.00    -7800.00
03366             120.00    -7400.00
03367             320.00    -8200.00
03368             160.00    -8200.00
03369             240.00    -8400.00
03370             200.00    -8600.00
03371             240.00    -8800.00
03372             280.00    -9200.00
03373             280.00    -9000.00
03374             160.00    -9600.00
03375             280.00    -9800.00
03376             320.00    -9800.00
03377             280.00   -10200.00
03378             320.00   -10200.00
03379             320.00   -10600.00
03380             320.00   -10800.00
03381             320.00   -11000.00
03382             360.00   -11000.00
03383             320.00   -11400.00
03384             320.00   -11400.00
03385             360.00   -11600.00
03386             360.00   -11800.00
03387             440.00   -11800.00
03388             440.00   -12200.00
03389             440.00   -12000.00
03390             440.00   -12200.00
03391             480.00   -12400.00
03392             480.00   -12600.00
03393             520.00   -12600.00
03394             520.00   -12600.00
03395             520.00   -13000.00
03396             600.00   -13200.00
03397             600.00   -13200.00
03398             640.00   -13400.00
03399             640.00   -13400.00
03400             760.00   -13400.00
03401             720.00   -13600.00
03402             760.00   -13800.00
03403             760.00   -13800.00
03404             800.00   -13800.00
03405             840.00   -13800.00
03406             920.00   -14000.00
03407             960.00   -14200.00
03408             960.00   -14200.00
03409            1000.00   -14000.00
03410            1040.00   -14200.00
03411            1080.00   -14200.00
03412            1160.00   -14200.00
03413            1240.00   -14400.00
03414            1280.00   -14400.00
03415            1400.00   -14200.00
03416            1440.00   -14200.00
03417            1520.00   -14600.00
03418            1600.00   -14600.00
03419            1720.00   -14400.00
03420            1800.00   -14400.00
03421            1920.00   -14400.00
03422            2040.00   -14200.00
03423            2200.00   -14400.00
03424            2280.00   -14200.00
03425            2360.00   -14200.00
03426            2440.00   -14200.00
03427            2560.00   -14200.00
03428            2560.00   -14200.00
03429            2600.00   -14200.00
03430            2600.00   -14000.00
03431            2560.00   -14200.00
03432            2560.00   -14000.00
03433            2520.00   -13800.00
03434            2440.00   -13600.00
03435            2320.00   -13600.00
03436            2240.00   -13600.00
03437            2080.00   -13600.00
03438            1960.00   -13400.00
03439            1880.00   -13400.00
03440            1760.00   -13400.00
03441            1640.00   -13200.00
03442            1560.00   -13000.00
03443            1440.00   -12800.00
03444            1320.00   -13000.00
03445            1240.00   -12600.00
03446            1120.00   -12400.00
03447            1080.00   -12400.00
03448            1000.00   -12200.00
03449             920.00   -12200.00
03450             840.00   -11800.00
03451             800.00   -11800.00
03452             760.00   -11800.00
03453             680.00   -11600.00
03454             680.00   -11400.00
03455             640.00   -11000.00
03456             640.00   -11000.00
03457             600.00   -11000.00
03458             560.00   -10800.00
03459             520.00   -10600.00
03460             520.00   -10200.00
03461             480.00   -10000.00
03462             440.00    -9800.00
03463             440.00    -9600.00
03464             440.00    -9400.00
03465             440.00    -9200.00
03466             360.00    -9200.00
03467             400.00    -8800.00
03468             360.00    -8600.00
03469             360.00    -8400.00
03470             320.00    -8200.00
03471             320.00    -8000.00
03472             320.00    -7800.00
03473             320.00    -7200.00
03474             320.00    -7200.00
03475             320.00    -7000.00
03476             280.00    -6800.00
03477             280.00    -6600.00
03478             280.00    -6200.00
03479             280.00    -6000.00
03480             280.00    -5800.00
03481             280.00    -5400.00
03482             200.00    -5400.00
03483             200.00    -5000.00
03484             200.00    -5000.00
03485             200.00    -4600.00
03486             200.00    -4200.00
03487             200.00    -3800.00
03488             200.00    -3600.00
03489             160.00    -3400.00
03490             200.00    -3200.00
03491             160.00    -3000.00
03492             160.00    -2800.00
03493             120.00    -2400.00
03494             160.00    -2200.00
03495             120.00    -2000.00
03496             120.00    -1800.00
03497             120.00    -1400.00
03498             120.00    -1200.00
03499             120.00     -600.00
03500              40.00     -600.00
03501             120.00     -200.00
03502              80.00     -200.00
03503             120.00      200.00
03504              40.00      600.00
03505             200.00      800.00
03506             280.00     1000.00
03507             200.00     1200.00
03508             160.00     1400.00
03509             160.00     1800.00
03510             160.00     2000.00
03511             480.00     2200.00
03512            1360.00     2800.00
03513            1000.00     2800.00
03514            -480.00     3000.00
03515           -1280.00     3000.00
03516           -1080.00     3600.00
03517           -1080.00     3800.00
03518            -200.00     4200.00
03519             800.00     4200.00
03520             160.00     4600.00
03521             280.00     5000.00
03522             -40.00     4800.00
03523            -160.00     5800.00
03524              40.00     5400.00
03525            -120.00     5800.00
03526             160.00     6600.00
03527            -200.00     5800.00
03528            -120.00     7000.00
03529            -280.00     6600.00
03530            -280.00     7000.00
03531             -40.00     7400.00
03532            -160.00     7600.00
03533            -120.00     8000.00
03534            -200.00     7800.00
03535            -120.00     8600.00
03536            -280.00     8200.00
03537            -200.00     8600.00
03538            -160.00     9000.00
03539            -280.00     9000.00
03540            -280.00     9400.00
03541            -280.00     9400.00
03542            -280.00     9800.00
03543            -320.00     9800.00
03544            -160.00    10200.00
03545            -280.00    10200.00
03546            -280.00    10400.00
03547            -360.00    10800.00
03548            -320.00    11000.00
03549            -360.00    11200.00
03550            -360.00    11400.00
03551            -360.00    11600.00
03552            -440.00    11600.00
03553            -360.00    11800.00
03554            -440.00    12000.00
03555            -440.00    12000.00
03556            -440.00    12200.00
03557            -480.00    12400.00
03558            -520.00    12400.00
03559            -520.00    12600.00
03560            -480.00    12800.00
03561            -560.00    13000.00
03562            -560.00    13000.00
03563            -560.00    13200.00
03564            -640.00    13200.00
03565            -640.00    13400.00
03566            -640.00    13400.00
03567            -680.00    13400.00
03568            -680.00    13600.00
03569            -720.00    13800.00
03570            -800.00    13800.00
03571            -840.00    14000.00
03572            -840.00    14000.00
03573            -880.00    14000.00
03574            -920.00    14200.00
03575            -960.00    14200.00
03576           -1000.00    14200.00
03577           -1080.00    14200.00
03578           -1120.00    14200.00
03579           -1160.00    14200.00
03580           -1240.00    14200.00
03581           -1280.00    14200.00
03582           -1400.00    14400.00
03583           -1440.00    14400.00
03584           -1560.00    14600.00
03585           -1600.00    14400.00
03586           -1720.00    14400.00
03587           -1800.00    14400.00
03588           -1920.00    14600.00
03589           -2040.00    14600.00
03590           -2120.00    14200.00
03591           -2280.00    14200.00
03592           -2360.00    14200.00
03593           -2400.00    14200.00
03594           -2560.00    14200.00
03595           -2560.00    14200.00
03596           -2600.00    14200.00
03597           -2640.00    14200.00
03598           -2600.00    14000.00
03599           -2560.00    14000.00
03600           -2520.00    14000.00
03601           -2440.00    13800.00
03602           -2360.00    13800.00
03603           -2240.00    13800.00
03604           -2160.00    13400.00
03605           -2080.00    13400.00
03606           -1920.00    13400.00
03607           -1760.00    13400.00
03608           -1640.00    13200.00
03609           -1600.00    13000.00
03610           -1440.00    13000.00
03611           -1360.00    13000.00
03612           -1280.00    12600.00
03613           -1160.00    12600.00
03614           -1120.00    12600.00
03615           -1040.00    12400.00
03616            -960.00    12200.00
03617            -920.00    12200.00
03618            -840.00    11800.00
03619            -840.00    11600.00
03620            -760.00    11600.00
03621            -680.00    11400.00
03622            -680.00    11200.00
03623            -640.00    11000.00
03624            -640.00    10800.00
03625            -600.00    10600.00
03626            -520.00    10600.00
03627            -520.00    10200.00
03628            -520.00    10000.00
03629            -520.00     9800.00
03630            -480.00     9800.00
03631            -480.00     9600.00
03632            -440.00     9400.00
03633            -440.00     9200.00
03634            -360.00     9000.00
03635            -360.00     8600.00
03636            -400.00     8400.00
03637            -360.00     8200.00
03638            -320.00     7800.00
03639            -320.00     7800.00
03640            -320.00     7600.00
03641            -320.00     7400.00
03642            -320.00     7000.00
03643            -320.00     6800.00
03644            -320.00     6600.00
03645            -320.00     6400.00
03646            -280.00     6200.00
03647            -280.00     5800.00
03648            -280.00     5600.00
03649            -280.00     5200.00
03650            -280.00     5200.00
03651            -240.00     4800.00
03652            -200.00     4600.00
03653            -200.00     4200.00
03654            -200.00     4000.00
03655            -200.00     3800.00
03656            -200.00     3600.00
03657            -200.00     3400.00
03658            -200.00     3000.00
03659            -200.00     3000.00
03660            -200.00     2600.00
03661            -200.00     2200.00
03662            -160.00     2000.00
03663            -160.00     1800.00
03664            -160.00     1400.00
03665            -120.00     1000.00
03666            -120.00      800.00
03667            -120.00      600.00
03668            -120.00      400.00
03669            -120.00      200.00
03670             -40.00     -200.00
03671             -40.00     -400.00
03672             120.00     -600.00
03673             160.00     -800.00
03674             120.00    -1000.00
03675              80.00    -1400.00
03676               0.00    -1600.00
03677               0.00    -2000.00
03678             160.00    -2200.00
03679             640.00    -2400.00
03680            1200.00    -3000.00
03681             480.00    -3400.00
03682            -640.00    -3400.00
03683            -960.00    -3600.00
03684            -680.00    -3600.00
03685            -680.00    -3800.00
03686            -320.00    -4200.00
03687             600.00    -4600.00
03688             320.00    -4400.00
03689             440.00    -5000.00
03690             280.00    -5600.00
03691              40.00    -5200.00
03692             360.00    -6000.00
03693             160.00    -5800.00
03694             280.00    -6200.00
03695             160.00    -6800.00
03696              40.00    -6600.00
03697              40.00    -7200.00
03698             120.00    -7000.00
03699             160.00    -7600.00
03700             120.00    -7600.00
03701             280.00    -7800.00
03702             200.00    -8400.00
03703             200.00    -8000.00
03704             240.00    -8800.00
03705             200.00    -8800.00
03706             280.00    -9000.00
03707             280.00    -9200.00
03708             200.00    -9400.00
03709             200.00    -9800.00
03710             320.00    -9800.00
03711             280.00   -10200.00
03712             320.00   -10000.00
03713             320.00   -10600.00
03714             320.00   -10800.00
03715             320.00   -10800.00
03716             360.00   -11000.00
03717             360.00   -11200.00
03718             320.00   -11400.00
03719             360.00   -11600.00
03720             360.00   -11600.00
03721             360.00   -11800.00
03722             440.00   -11800.00
03723             440.00   -12200.00
03724             440.00   -12400.00
03725             480.00   -12400.00
03726             440.00   -12400.00
03727             480.00   -12600.00
03728             560.00   -13000.00
03729             520.00   -12800.00
03730             560.00   -13200.00
03731             600.00   -13000.00
03732             640.00   -13400.00
03733             640.00   -13400.00
03734             680.00   -13400.00
03735             680.00   -13800.00
03736             760.00   -13600.00
03737             760.00   -13800.00
03738             760.00   -13800.00
03739             800.00   -14000.00
03740             840.00   -14000.00
03741             920.00   -14000.00
03742             960.00   -14200.00
03743            1000.00   -14000.00
03744            1000.00   -14200.00
03745            1080.00   -14200.00
03746            1120.00   -14400.00
03747            1240.00   -14400.00
03748            1280.00   -14200.00
03749            1320.00   -14400.00
03750            1440.00   -14400.00
03751            1480.00   -14400.00
03752            1600.00   -14400.00
03753            1720.00   -14600.00
03754            1760.00   -14400.00
03755            1920.00   -14600.00
03756            2000.00   -14400.00
03757            2120.00   -14400.00
03758            2240.00   -14200.00
03759            2320.00   -14200.00
03760            2400.00   -14200.00
03761            2520.00   -14200.00
03762            2560.00   -14200.00
03763            2600.00   -14000.00
03764            2560.00   -14200.00
03765            2600.00   -14000.00
03766            2560.00   -13800.00
03767            2520.00   -13800.00
03768            2440.00   -13600.00
03769            2360.00   -13800.00
03770            2240.00   -13600.00
03771            2120.00   -13600.00
03772            2040.00   -13400.00
03773            1920.00   -13400.00
03774            1760.00   -13400.00
03775            1680.00   -13200.00
03776            1560.00   -13000.00
03777            1440.00   -13000.00
03778            1320.00   -12600.00
03779            1240.00   -12800.00
03780            1160.00   -12600.00
03781            1080.00   -12400.00
03782            1000.00   -12400.00
03783             960.00   -12200.00
03784             920.00   -12000.00
03785             800.00   -11800.00
03786             760.00   -11800.00
03787             760.00   -11600.00
03788             680.00   -11600.00
03789             640.00   -11200.00
03790             640.00   -11000.00
03791             600.00   -10800.00
03792             600.00   -10800.00
03793             520.00   -10600.00
03794             520.00   -10400.00
03795             480.00   -10200.00
03796             480.00    -9800.00
03797             440.00    -9800.00
03798             440.00    -9600.00
03799             440.00    -9400.00
03800             440.00    -9200.00
03801             400.00    -9000.00
03802             360.00    -8600.00
03803             360.00    -8400.00
03804             320.00    -8200.00
03805             320.00    -7800.00
03806             320.00    -7800.00
03807             320.00    -7600.00
03808             320.00    -7200.00
03809             320.00    -7200.00
03810             280.00    -6800.00
03811             280.00    -6600.00
03812             280.00    -6600.00
03813             280.00    -6200.00
03814             280.00    -5800.00
03815             280.00    -5800.00
03816             200.00    -5400.00
03817             200.00    -5200.00
03818             200.00    -5000.00
03819             200.00    -4600.00
03820             200.00    -4400.00
03821             200.00    -4200.00
03822             200.00    -3800.00
03823             160.00    -3600.00
03824             160.00    -3400.00
03825             160.00    -3000.00
03826             160.00    -3000.00
03827             160.00    -2600.00
03828             120.00    -2400.00
03829             160.00    -2000.00
03830             120.00    -1800.00
03831              80.00    -1400.00
03832             120.00    -1200.00
03833              80.00     -800.00
03834             120.00     -600.00
03835             120.00     -400.00
03836              40.00        0.00
03837             120.00      200.00
03838              80.00      400.00
03839             160.00      600.00
03840             280.00     1000.00
03841             200.00     1200.00
03842             200.00     1400.00
03843             120.00     1400.00
03844             160.00     1800.00
03845             320.00     2200.00
03846            1120.00     2400.00
03847            1280.00     3000.00
03848               0.00     3000.00
03849           -1160.00     3000.00
03850           -1160.00     3600.00
03851           -1080.00     3800.00
03852            -640.00     4000.00
03853             680.00     4200.00
03854             320.00     4400.00
03855             160.00     4800.00
03856             120.00     4600.00
03857            -240.00     5800.00
03858              40.00     5800.00
03859            -120.00     5400.00
03860             120.00     6600.00
03861             -40.00     5800.00
03862            -160.00     6800.00
03863            -200.00     6800.00
03864            -320.00     6800.00
03865             -40.00     7400.00
03866            -160.00     7400.00
03867            -120.00     7800.00
03868            -200.00     7800.00
03869            -120.00     8400.00
03870            -200.00     8400.00
03871            -280.00     8600.00
03872            -120.00     9000.00
03873            -240.00     8800.00
03874            -240.00     9400.00
03875            -280.00     9400.00
03876            -280.00     9800.00
03877            -320.00    10000.00
03878            -200.00    10000.00
03879            -280.00    10400.00
03880            -280.00    10200.00
03881            -280.00    10600.00
03882            -320.00    10800.00
03883            -360.00    11000.00
03884            -360.00    11000.00
03885            -360.00    11400.00
03886            -440.00    11400.00
03887            -360.00    11600.00
03888            -440.00    12000.00
03889            -440.00    12000.00
03890            -360.00    12200.00
03891            -440.00    12400.00
03892            -520.00    12400.00
03893            -520.00    12600.00
03894            -480.00    12800.00
03895            -520.00    12800.00
03896            -520.00    13000.00
03897            -520.00    13200.00
03898            -640.00    13200.00
03899            -640.00    13400.00
03900            -600.00    13400.00
03901            -640.00    13600.00
03902            -680.00    13400.00
03903            -680.00    13800.00
03904            -800.00    13800.00
03905            -840.00    13800.00
03906            -840.00    14000.00
03907            -920.00    13800.00
03908            -920.00    14000.00
03909            -960.00    14200.00
03910           -1000.00    14200.00
03911           -1080.00    14200.00
03912           -1120.00    14200.00
03913           -1160.00    14200.00
03914           -1240.00    14400.00
03915           -1280.00    14400.00
03916           -1320.00    14600.00
03917           -1440.00    14400.00
03918           -1560.00    14600.00
03919           -1600.00    14200.00
03920           -1640.00    14200.00
03921           -1800.00    14600.00
03922           -1840.00    14400.00
03923           -1960.00    14400.00
03924           -2120.00    14400.00
03925           -2240.00    14400.00
03926           -2360.00    14200.00
03927           -2400.00    14200.00
03928           -2520.00    14200.00
03929           -2560.00    14200.00
03930           -2600.00    14200.00
03931           -2600.00    14200.00
03932           -2640.00    14200.00
03933           -2600.00    14000.00
03934           -2520.00    14200.00
03935           -2440.00    13800.00
03936           -2360.00    13800.00
03937           -2280.00    13800.00
03938           -2200.00    13800.00
03939           -2120.00    13600.00
03940           -1920.00    13400.00
03941           -1800.00    13400.00
03942           -1720.00    13200.00
03943           -1600.00    13000.00
03944           -1520.00    13000.00
03945           -1400.00    12800.00
03946           -1280.00    12800.00
03947           -1160.00    12600.00
03948           -1120.00    12400.00
03949           -1000.00    12400.00
03950            -960.00    12200.00
03951            -960.00    12200.00
03952            -840.00    12000.00
03953            -800.00    11800.00
03954            -760.00    11600.00
03955            -680.00    11600.00
03956            -680.00    11400.00
03957            -640.00    11000.00
03958            -640.00    10800.00
03959            -640.00    10800.00
03960            -600.00    10400.00
03961            -520.00    10200.00
03962            -520.00    10200.00
03963            -520.00    10000.00
03964            -480.00     9800.00
03965            -480.00     9600.00
03966            -480.00     9400.00
03967            -440.00     9000.00
03968            -440.00     9000.00
03969            -360.00     8600.00
03970            -360.00     8400.00
03971            -440.00     8400.00
03972            -360.00     8000.00
03973            -360.00     7800.00
03974            -360.00     7600.00
03975            -320.00     7600.00
03976            -320.00     7000.00
03977            -320.00     6800.00
03978            -320.00     6600.00
03979            -320.00     6600.00
03980            -280.00     6200.00
03981            -280.00     6000.00
03982            -280.00     5800.00
03983            -320.00     5400.00
03984            -280.00     5200.00
03985            -280.00     5000.00
03986            -280.00     4600.00
03987            -200.00     4400.00
03988            -200.00     4200.00
03989            -200.00     3800.00
03990            -200.00     3600.00
03991            -200.00     3400.00
03992            -200.00     3000.00
03993            -200.00     2800.00
03994            -200.00     2600.00
03995            -160.00     2400.00
03996            -200.00     2200.00
03997            -160.00     1800.00
03998            -160.00     1400.00
03999            -120.00     1200.00
04000            -120.00     1000.00
04001            -120.00      600.00
04002            -120.00      600.00
04003            -120.00      200.00
04004             -80.00        0.00
04005             -40.00     -400.00
04006              40.00     -600.00
04007             120.00     -800.00
04008             120.00    -1000.00
04009              80.00    -1200.00
04010              40.00    -1600.00
04011              40.00    -1800.00
04012             120.00    -2000.00
04013             440.00    -2200.00
04014            1120.00    -2800.00
04015             840.00    -3200.00
04016            -320.00    -3200.00
04017            -960.00    -3400.00
04018            -760.00    -3600.00
04019            -680.00    -3800.00
04020            -600.00    -3800.00
04021             440.00    -4600.00
04022             480.00    -4600.00
04023             320.00    -4600.00
04024             320.00    -5800.00
04025              40.00    -5200.00
04026             320.00    -5800.00
04027             280.00    -6000.00
04028             240.00    -6000.00
04029             240.00    -6600.00
04030              40.00    -6600.00
04031              40.00    -7200.00
04032              40.00    -7000.00
04033             160.00    -7400.00
04034             120.00    -7800.00
04035             160.00    -7600.00
04036             280.00    -8400.00
04037             160.00    -8200.00
04038             200.00    -8600.00
04039             200.00    -8600.00
04040             280.00    -9000.00
04041             280.00    -9400.00
04042             200.00    -9400.00
04043             160.00    -9800.00
04044             280.00    -9800.00
04045             280.00   -10000.00
04046             280.00   -10200.00
04047             320.00   -10600.00
04048             320.00   -10600.00
04049             320.00   -10800.00
04050             360.00   -11000.00
04051             360.00   -11000.00
04052             320.00   -11400.00
04053             360.00   -11400.00
04054             400.00   -11600.00
04055             360.00   -11800.00
04056             440.00   -12000.00
04057             440.00   -12200.00
04058             440.00   -12200.00
04059             440.00   -12400.00
04060             480.00   -12400.00
04061             480.00   -12600.00
04062             520.00   -12600.00
04063             600.00   -13000.00
04064             600.00   -13000.00
04065             600.00   -13000.00
04066             600.00   -13200.00
04067             640.00   -13400.00
04068             680.00   -13400.00
04069             680.00   -13400.00
04070             760.00   -13600.00
04071             760.00   -13600.00
04072             760.00   -13800.00
04073             800.00   -13800.00
04074             840.00   -14000.00
04075             920.00   -14000.00
04076             960.00   -14000.00
04077            1000.00   -14200.00
04078            1080.00   -14200.00
04079            1080.00   -14200.00
04080            1120.00   -14200.00
04081            1160.00   -14200.00
04082            1280.00   -14200.00
04083            1280.00   -14200.00
04084            1400.00   -14200.00
04085            1440.00   -14400.00
04086            1560.00   -14600.00
04087            1640.00   -14200.00
04088            1760.00   -14600.00
04089            1880.00   -14600.00
04090            1960.00   -14600.00
04091            2080.00   -14200.00
04092            2200.00   -14200.00
04093            2280.00   -14200.00
04094            2400.00   -14400.00
04095            2440.00   -14200.00
04096            2560.00   -14200.00
04097            2560.00   -14200.00
04098            2600.00   -14000.00
04099            2600.00   -14000.00
04100            2600.00   -14000.00
04101            2520.00   -13800.00
04102            2440.00   -13800.00
04103            2360.00   -13600.00
04104            2280.00   -13600.00
04105            2200.00   -13400.00
04106            2040.00   -13400.00
04107            1920.00   -13400.00
04108            1800.00   -13200.00
04109            1720.00   -13200.00
04110            1600.00   -13000.00
04111            1480.00   -13000.00
04112            1400.00   -13000.00
04113            1280.00   -12800.00
04114            1200.00   -12600.00
04115            1120.00   -12400.00
04116            1080.00   -12400.00
04117             960.00   -12200.00
04118             920.00   -12000.00
04119             800.00   -12200.00
04120             760.00   -11800.00
04121             760.00   -11800.00
04122             680.00   -11400.00
04123             640.00   -11400.00
04124             640.00   -11000.00
04125             600.00   -10800.00
04126             520.00   -10800.00
04127             520.00   -10600.00
04128             480.00   -10600.00
04129             520.00   -10200.00
04130             480.00   -10000.00
04131             480.00    -9800.00
04132             440.00    -9600.00
04133             440.00    -9400.00
04134             440.00    -9000.00
04135             440.00    -9000.00
04136             360.00    -8800.00
04137             360.00    -8600.00
04138             360.00    -8400.00
04139             320.00    -8200.00
04140             320.00    -7800.00
04141             320.00    -7800.00
04142             320.00    -7200.00
04143             320.00    -7200.00
04144             320.00    -7000.00
04145             280.00    -6600.00
04146             280.00    -6600.00
04147             280.00    -6200.00
04148             240.00    -6000.00
04149             280.00    -5800.00
04150             240.00    -5400.00
04151             200.00    -5200.00
04152             200.00    -5000.00
04153             200.00    -4600.00
04154             160.00    -4400.00
04155             160.00    -4200.00
04156             200.00    -3800.00
04157             160.00    -3800.00
04158             160.00    -3400.00
04159             120.00    -3200.00
04160             160.00    -2800.00
04161             160.00    -2600.00
04162             200.00    -2400.00
04163             120.00    -2200.00
04164             120.00    -1800.00
04165             120.00    -1600.00
04166             120.00    -1400.00
04167             120.00    -1000.00
04168              80.00     -800.00
04169              80.00     -600.00
04170              40.00     -200.00
04171              40.00      200.00
04172              40.00      200.00
04173             120.00      600.00
04174             200.00     1000.00
04175             240.00     1000.00
04176             200.00     1200.00
04177             120.00     1400.00
04178             120.00     1800.00
04179             200.00     2000.00
04180             800.00     2200.00
04181            1400.00     2800.00
04182             480.00     3000.00
04183            -920.00     3000.00
04184           -1280.00     3400.00
04185           -1000.00     3800.00
04186            -960.00     3800.00
04187             440.00     4200.00
04188             600.00     4200.00
04189             120.00     4800.00
04190             240.00     4600.00
04191            -240.00     5200.00
04192               0.00     6000.00
04193             -40.00     5200.00
04194               0.00     6200.00
04195             120.00     6000.00
04196            -200.00     6200.00
04197            -120.00     7000.00
04198            -360.00     6600.00
04199            -120.00     7400.00
04200             -80.00     7000.00
04201            -160.00     7600.00
04202            -160.00     7800.00
04203            -160.00     8000.00
04204            -160.00     8600.00
04205            -280.00     8200.00
04206             -80.00     9200.00
04207            -200.00     8800.00
04208            -200.00     9200.00
04209            -280.00     9400.00
04210            -200.00     9800.00
04211            -320.00     9800.00
04212            -240.00    10000.00
04213            -200.00    10200.00
04214            -320.00    10200.00
04215            -280.00    10600.00
04216            -320.00    10800.00
04217            -360.00    11000.00
04218            -360.00    11000.00
04219            -320.00    11400.00
04220            -440.00    11600.00
04221            -440.00    11600.00
04222            -440.00    12000.00
04223            -440.00    12000.00
04224            -440.00    12200.00
04225            -440.00    12200.00
04226            -520.00    12400.00
04227            -480.00    12400.00
04228            -520.00    12800.00
04229            -520.00    12600.00
04230            -520.00    13000.00
04231            -560.00    13000.00
04232            -640.00    13200.00
04233            -640.00    13200.00
04234            -640.00    13400.00
04235            -640.00    13400.00
04236            -680.00    13600.00
04237            -680.00    13600.00
04238            -800.00    13800.00
04239            -840.00    13800.00
04240            -840.00    14000.00
04241            -840.00    13800.00
04242            -920.00    14000.00
04243            -920.00    14200.00
04244            -960.00    14200.00
04245           -1000.00    14200.00
04246           -1080.00    14200.00
04247           -1160.00    14400.00
04248           -1160.00    14200.00
04249           -1280.00    14200.00
04250           -1320.00    14600.00
04251           -1400.00    14600.00
04252           -1480.00    14600.00
04253           -1560.00    14400.00
04254           -1640.00    14400.00
04255           -1760.00    14600.00
04256           -1840.00    14600.00
04257           -1920.00    14600.00
04258           -2080.00    14200.00
04259           -2240.00    14600.00
04260           -2280.00    14400.00
04261           -2400.00    14200.00
04262           -2440.00    14400.00
04263           -2560.00    14200.00
04264           -2600.00    14000.00
04265           -2600.00    14200.00
04266           -2600.00    14000.00
04267           -2600.00    14000.00
04268           -2560.00    14000.00
04269           -2480.00    14000.00
04270           -2400.00    13800.00
04271           -2280.00    13800.00
04272           -2200.00    13600.00
04273           -2120.00    13400.00
04274           -1960.00    13400.00
04275           -1800.00    13400.00
04276           -1760.00    13400.00
04277           -1640.00    13200.00
04278           -1560.00    13200.00
04279           -1400.00    13000.00
04280           -1320.00    12800.00
04281           -1240.00    12800.00
04282           -1160.00    12600.00
04283           -1080.00    12400.00
04284           -1000.00    12200.00
04285            -960.00    12200.00
04286            -880.00    12000.00
04287            -840.00    11800.00
04288            -760.00    11800.00
04289            -760.00    11600.00
04290            -680.00    11400.00
04291            -680.00    11000.00
04292            -680.00    11000.00
04293            -600.00    10800.00
04294            -600.00    10600.00
04295            -520.00    10400.00
04296            -560.00    10200.00
04297            -520.00    10000.00
04298            -520.00     9800.00
04299            -520.00     9800.00
04300            -480.00     9400.00
04301            -480.00     9200.00
04302            -440.00     9000.00
04303            -440.00     8600.00
04304            -440.00     8400.00
04305            -400.00     8400.00
04306            -360.00     8200.00
04307            -400.00     7800.00
04308            -320.00     7800.00
04309            -360.00     7400.00
04310            -320.00     7200.00
04311            -320.00     6800.00
04312            -320.00     6800.00
04313            -320.00     6600.00
04314            -320.00     6200.00
04315            -280.00     6000.00
04316            -280.00     5800.00
04317            -280.00     5400.00
04318            -280.00     5400.00
04319            -200.00     5000.00
04320            -200.00     4600.00
04321            -200.00     4400.00
04322            -200.00     4200.00
04323            -200.00     3800.00
04324            -200.00     3600.00
04325            -200.00     3400.00
04326            -200.00     3200.00
04327            -200.00     2800.00
04328            -200.00     2600.00
04329            -200.00     2400.00
04330            -160.00     2200.00
04331            -160.00     1800.00
04332            -120.00     1400.00
04333            -120.00     1400.00
04334            -120.00     1000.00
04335            -120.00      800.00
04336             -80.00      600.00
04337             -80.00      200.00
04338             -80.00      200.00
04339             -40.00     -200.00
04340               0.00     -400.00
04341             120.00     -600.00
04342             120.00    -1000.00
04343             120.00    -1200.00
04344               0.00    -1400.00
04345               0.00    -1600.00
04346              40.00    -2000.00
04347             280.00    -2200.00
04348             960.00    -2600.00
04349            1120.00    -3000.00
04350              40.00    -3200.00
04351            -840.00    -3600.00
04352            -840.00    -3600.00
04353            -640.00    -3800.00
04354            -720.00    -3800.00
04355               0.00    -4400.00
04356             520.00    -5000.00
04357             200.00    -4600.00
04358             440.00    -5400.00
04359             120.00    -5200.00
04360             280.00    -5200.00
04361             400.00    -6000.00
04362             280.00    -5800.00
04363             280.00    -6600.00
04364               0.00    -6600.00
04365               0.00    -7000.00
04366             -40.00    -7000.00
04367             120.00    -7400.00
04368             120.00    -7800.00
04369             160.00    -7600.00
04370             320.00    -8200.00
04371             240.00    -8400.00
04372             280.00    -8400.00
04373             200.00    -8600.00
04374             200.00    -8800.00
04375             200.00    -9200.00
04376             200.00    -9400.00
04377             120.00    -9800.00
04378             200.00    -9800.00
04379             320.00   -10000.00
04380             280.00   -10200.00
04381             360.00   -10200.00
04382             360.00   -10600.00
04383             360.00   -10800.00
04384             320.00   -11000.00
04385             320.00   -11000.00
04386             280.00   -11000.00
04387             280.00   -11400.00
04388             320.00   -11600.00
04389             360.00   -11800.00
04390             440.00   -11800.00
04391             480.00   -12200.00
04392             520.00   -12200.00
04393             480.00   -12200.00
04394             440.00   -12400.00
04395             440.00   -12400.00
04396             480.00   -12600.00
04397             520.00   -13000.00
04398             520.00   -13000.00
04399             600.00   -13000.00
04400             640.00   -13200.00
04401             680.00   -13400.00
04402             680.00   -13400.00
04403             720.00   -13400.00
04404             760.00   -13600.00
04405             680.00   -13600.00
04406             680.00   -13600.00
04407             760.00   -13800.00
04408             800.00   -13800.00
04409             920.00   -14000.00
04410             960.00   -14000.00
04411            1040.00   -14200.00
04412            1000.00   -14200.00
04413            1080.00   -14200.00
04414            1080.00   -14200.00
04415            1120.00   -14200.00
04416            1160.00   -14200.00
04417            1280.00   -14400.00
04418            1400.00   -14400.00
04419            1440.00   -14200.00
04420            1520.00   -14200.00
04421            1600.00   -14400.00
04422            1720.00   -14600.00
04423            1840.00   -14200.00
04424            1920.00   -14200.00
04425            2040.00   -14400.00
04426            2120.00   -14400.00
04427            2240.00   -14400.00
04428            2360.00   -14200.00
04429            2440.00   -14200.00
04430            2520.00   -14000.00
04431            2560.00   -14200.00
04432            2600.00   -14200.00
04433            2560.00   -14000.00
04434            2560.00   -14000.00
04435            2520.00   -14000.00
04436            2440.00   -14000.00
04437            2360.00   -13600.00
04438            2360.00   -13600.00
04439            2240.00   -13600.00
04440            2080.00   -13600.00
04441            1960.00   -13400.00
04442            1880.00   -13400.00
04443            1760.00   -13200.00
04444            1600.00   -13000.00
04445            1520.00   -13000.00
04446            1400.00   -13000.00
04447            1280.00   -12800.00
04448            1240.00   -12600.00
04449            1120.00   -12600.00
04450            1080.00   -12400.00
04451            1000.00   -12200.00
04452             920.00   -12200.00
04453             840.00   -11800.00
04454             760.00   -11800.00
04455             760.00   -11600.00
04456             760.00   -11400.00
04457             720.00   -11400.00
04458             680.00   -11000.00
04459             640.00   -11000.00
04460             600.00   -10800.00
04461             560.00   -10800.00
04462             520.00   -10400.00
04463             480.00   -10200.00
04464             480.00   -10000.00
04465             480.00    -9800.00
04466             440.00    -9600.00
04467             440.00    -9400.00
04468             440.00    -9200.00
04469             440.00    -9000.00
04470             440.00    -9000.00
04471             400.00    -8600.00
04472             320.00    -8400.00
04473             320.00    -8200.00
04474             320.00    -8000.00
04475             320.00    -7600.00
04476             320.00    -7400.00
04477             320.00    -7200.00
04478             280.00    -7000.00
04479             280.00    -6800.00
04480             280.00    -6600.00
04481             280.00    -6400.00
04482             280.00    -6000.00
04483             280.00    -5800.00
04484             280.00    -5600.00
04485             240.00    -5400.00
04486             280.00    -5000.00
04487             200.00    -4800.00
04488             200.00    -4600.00
04489             160.00    -4200.00
04490             200.00    -4200.00
04491             200.00    -3800.00
04492             160.00    -3600.00
04493             160.00    -3400.00
04494             160.00    -3000.00
04495             120.00    -2600.00
04496             120.00    -2600.00
04497             120.00    -2200.00
04498             120.00    -2000.00
04499              80.00    -1800.00
04500             120.00    -1400.00
04501              40.00    -1200.00
04502             120.00     -600.00
04503             120.00     -600.00
04504             120.00     -200.00
04505             120.00     -200.00
04506              80.00      200.00
04507             120.00      400.00
04508             200.00      800.00
04509             200.00     1000.00
04510             200.00     1200.00
04511             160.00     1400.00
04512             120.00     1800.00
04513             160.00     2000.00
04514             520.00     2200.00
04515            1320.00     2800.00
04516             960.00     2800.00
04517            -520.00     3200.00
04518           -1280.00     3200.00
04519           -1080.00     3600.00
04520           -1080.00     3800.00
04521            -120.00     4200.00
04522             760.00     4200.00
04523             160.00     4600.00
04524             280.00     4800.00
04525            -120.00     5000.00
04526            -120.00     6000.00
04527               0.00     5200.00
04528             -40.00     6000.00
04529             160.00     6200.00
04530            -200.00     6000.00
04531            -120.00     7000.00
04532            -280.00     6600.00
04533            -200.00     7200.00
04534             -40.00     7400.00
04535            -160.00     7600.00
04536            -120.00     7800.00
04537            -160.00     7800.00
04538            -120.00     8600.00
04539            -320.00     8200.00
04540            -160.00     9000.00
04541            -200.00     9000.00
04542            -280.00     9000.00
04543            -200.00     9400.00
04544            -240.00     9400.00
04545            -280.00     9800.00
04546            -320.00     9800.00
04547            -200.00    10200.00
04548            -320.00    10200.00
04549            -280.00    10600.00
04550            -320.00    10800.00
04551            -320.00    10800.00
04552            -360.00    11000.00
04553            -320.00    11400.00
04554            -360.00    11600.00
04555            -440.00    11600.00
04556            -440.00    11800.00
04557            -440.00    11800.00
04558            -440.00    12000.00
04559            -440.00    12200.00
04560            -480.00    12400.00
04561            -520.00    12400.00
04562            -480.00    12800.00
04563            -520.00    12800.00
04564            -560.00    13000.00
04565            -600.00    13000.00
04566            -600.00    13000.00
04567            -640.00    13200.00
04568            -640.00    13200.00
04569            -640.00    13400.00
04570            -680.00    13600.00
04571            -760.00    13800.00
04572            -760.00    13600.00
04573            -800.00    13800.00
04574            -840.00    13800.00
04575            -840.00    14000.00
04576            -880.00    14000.00
04577            -920.00    14000.00
04578            -960.00    14200.00
04579           -1040.00    14200.00
04580           -1080.00    14200.00
04581           -1120.00    14200.00
04582           -1160.00    14400.00
04583           -1240.00    14400.00
04584           -1320.00    14600.00
04585           -1360.00    14600.00
04586           -1440.00    14600.00
04587           -1480.00    14600.00
04588           -1600.00    14600.00
04589           -1720.00    14400.00
04590           -1800.00    14600.00
04591           -1920.00    14600.00
04592           -2040.00    14400.00
04593           -2160.00    14400.00
04594           -2240.00    14200.00
04595           -2400.00    14200.00
04596           -2440.00    14400.00
04597           -2520.00    14200.00
04598           -2560.00    14200.00
04599           -2600.00    14200.00
04600           -2600.00    14000.00
04601           -2600.00    14000.00
04602           -2560.00    14000.00
04603           -2480.00    14000.00
04604           -2400.00    14000.00
04605           -2360.00    13800.00
04606           -2240.00    13600.00
04607           -2120.00    13800.00
04608           -2040.00    13400.00
04609           -1880.00    13400.00
04610           -1760.00    13200.00
04611           -1640.00    13200.00
04612           -1560.00    13200.00
04613           -1440.00    13000.00
04614           -1320.00    13000.00
04615           -1280.00    12800.00
04616           -1160.00    12600.00
04617           -1080.00    12400.00
04618           -1000.00    12400.00
04619            -960.00    12200.00
04620            -920.00    12000.00
04621            -840.00    11800.00
04622            -800.00    11800.00
04623            -760.00    11600.00
04624            -680.00    11400.00
04625            -680.00    11200.00
04626            -640.00    11000.00
04627            -640.00    10800.00
04628            -600.00    10600.00
04629            -560.00    10400.00
04630            -520.00    10400.00
04631            -520.00    10200.00
04632            -520.00    10000.00
04633            -520.00     9800.00
04634            -480.00     9400.00
04635            -480.00     9200.00
04636            -480.00     9000.00
04637            -440.00     8800.00
04638            -440.00     8600.00
04639            -440.00     8400.00
04640            -360.00     8200.00
04641            -360.00     8000.00
04642            -360.00     7600.00
04643            -360.00     7600.00
04644            -320.00     7400.00
04645            -320.00     7000.00
04646            -320.00     6800.00
04647            -320.00     6600.00
04648            -280.00     6200.00
04649            -280.00     6200.00
04650            -280.00     5800.00
04651            -280.00     5600.00
04652            -280.00     5400.00
04653            -240.00     5200.00
04654            -280.00     4800.00
04655            -200.00     4600.00
04656            -200.00     4400.00
04657            -200.00     4000.00
04658            -200.00     3800.00
04659            -200.00     3600.00
04660            -160.00     3400.00
04661            -200.00     3000.00
04662            -160.00     2800.00
04663            -160.00     2600.00
04664            -160.00     2200.00
04665            -120.00     2000.00
04666            -120.00     1800.00
04667            -120.00     1400.00
04668            -160.00     1000.00
04669            -120.00     1000.00
04670            -120.00      600.00
04671            -120.00      400.00
04672            -120.00      200.00
04673             -40.00     -200.00
04674               0.00     -400.00
04675             120.00     -600.00
04676             160.00    -1000.00
04677             120.00    -1000.00
04678              40.00    -1400.00
04679              40.00    -1600.00
04680              40.00    -2000.00
04681             200.00    -2000.00
04682             680.00    -2600.00
04683            1160.00    -2800.00
04684             440.00    -3200.00
04685            -680.00    -3400.00
04686            -960.00    -3800.00
04687            -680.00    -3800.00
04688            -720.00    -4000.00
04689            -280.00    -4200.00
04690             600.00    -4600.00
04691             320.00    -4600.00
04692             440.00    -5000.00
04693             200.00    -5400.00
04694              40.00    -5000.00
04695             320.00    -6000.00
04696             160.00    -6000.00
04697             280.00    -6200.00
04698             120.00    -6600.00
04699              40.00    -6800.00
04700              80.00    -7200.00
04701             120.00    -6800.00
04702             160.00    -7800.00
04703              80.00    -7600.00
04704             280.00    -7800.00
04705             200.00    -8400.00
04706             160.00    -8200.00
04707             200.00    -8800.00
04708             200.00    -8600.00
04709             280.00    -9200.00
04710             280.00    -9200.00
04711             200.00    -9400.00
04712             200.00    -9800.00
04713             280.00    -9800.00
04714             280.00   -10000.00
04715             320.00   -10200.00
04716             320.00   -10600.00
04717             320.00   -10600.00
04718             320.00   -10800.00
04719             320.00   -11000.00
04720             320.00   -11200.00
04721             360.00   -11400.00
04722             360.00   -11400.00
04723             360.00   -11600.00
04724             400.00   -11800.00
04725             440.00   -11800.00
04726             440.00   -12200.00
04727             440.00   -12200.00
04728             480.00   -12400.00
04729             480.00   -12400.00
04730             520.00   -12600.00
04731             560.00   -12800.00
04732             600.00   -13000.00
04733             600.00   -13000.00
04734             560.00   -13200.00
04735             640.00   -13200.00
04736             640.00   -13400.00
04737             680.00   -13400.00
04738             760.00   -13400.00
04739             760.00   -13600.00
04740             760.00   -13800.00
04741             800.00   -13800.00
04742             800.00   -13600.00
04743             840.00   -14000.00
04744             960.00   -14000.00
04745             960.00   -14000.00
04746            1000.00   -14000.00
04747            1000.00   -14200.00
04748            1080.00   -14200.00
04749            1120.00   -14200.00
04750            1240.00   -14200.00
04751            1280.00   -14200.00
04752            1320.00   -14400.00
04753            1440.00   -14200.00
04754            1480.00   -14400.00
04755            1560.00   -14600.00
04756            1640.00   -14400.00
04757            1760.00   -14200.00
04758            1880.00   -14600.00
04759            2040.00   -14200.00
04760            2080.00   -14200.00
04761            2200.00   -14400.00
04762            2320.00   -14200.00
04763            2400.00   -14200.00
04764            2520.00   -14200.00
04765            2560.00   -14200.00
04766            2560.00   -14000.00
04767            2600.00   -14000.00
04768            2600.00   -14000.00
04769            2520.00   -14000.00
04770            2520.00   -13800.00
04771            2440.00   -13600.00
04772            2360.00   -13800.00
04773            2200.00   -13600.00
04774            2120.00   -13600.00
04775            1960.00   -13400.00
04776            1880.00   -13400.00
04777            1800.00   -13400.00
04778            1640.00   -13200.00
04779            1560.00   -13000.00
04780            1440.00   -13000.00
04781            1320.00   -12800.00
04782            1240.00   -12800.00
04783            1160.00   -12600.00
04784            1120.00   -12400.00
04785            1000.00   -12200.00
04786             960.00   -12200.00
04787             920.00   -12000.00
04788             800.00   -11800.00
04789             760.00   -11600.00
04790             760.00   -11600.00
04791             680.00   -11400.00
04792             640.00   -11400.00
04793             640.00   -11000.00
04794             600.00   -10800.00
04795             600.00   -10600.00
04796             520.00   -10600.00
04797             600.00   -10200.00
04798             520.00   -10000.00
04799             480.00   -10000.00
04800             440.00    -9800.00
04801             440.00    -9400.00
04802             440.00    -9400.00
04803             440.00    -9000.00
04804             440.00    -9000.00
04805             440.00    -8600.00
04806             360.00    -8600.00
04807             320.00    -8200.00
04808             320.00    -8200.00
04809             320.00    -7800.00
04810             320.00    -7600.00
04811             320.00    -7200.00
04812             320.00    -7000.00
04813             320.00    -7000.00
04814             280.00    -6600.00
04815             280.00    -6400.00
04816             280.00    -6200.00
04817             280.00    -6000.00
04818             200.00    -5800.00
04819             200.00    -5400.00
04820             200.00    -5200.00
04821             200.00    -5000.00
04822             160.00    -4600.00
04823             200.00    -4400.00
04824             160.00    -4200.00
04825             160.00    -4000.00
04826             160.00    -3600.00
04827             160.00    -3400.00
04828             160.00    -3200.00
04829             160.00    -3000.00
04830             120.00    -2600.00
04831             120.00    -2200.00
04832             120.00    -2000.00
04833             120.00    -1800.00
04834             120.00    -1400.00
04835              40.00    -1200.00
04836              80.00     -800.00
04837              40.00     -600.00
04838              40.00     -400.00
04839              40.00     -200.00
04840              40.00      200.00
04841              80.00      200.00
04842             160.00      600.00
04843             240.00      800.00
04844             200.00     1200.00
04845             160.00     1400.00
04846             120.00     1600.00
04847             120.00     1800.00
04848             320.00     2400.00
04849            1160.00     2800.00
04850            1280.00     2800.00
04851             -40.00     3000.00
04852           -1240.00     3200.00
04853           -1160.00     3600.00
04854           -1080.00     3800.00
04855            -600.00     4000.00
04856             760.00     4200.00
04857             320.00     4400.00
04858             160.00     4800.00
04859             120.00     4600.00
04860            -200.00     5800.00
04861              40.00     5600.00
04862            -120.00     5400.00
04863             160.00     6600.00
04864             -40.00     5800.00
04865            -160.00     6600.00
04866            -200.00     6800.00
04867            -320.00     6800.00
04868             -40.00     7400.00
04869            -160.00     7200.00
04870            -120.00     7800.00
04871            -200.00     7600.00
04872            -120.00     8400.00
04873            -200.00     8400.00
04874            -240.00     8600.00
04875            -120.00     9200.00
04876            -280.00     8800.00
04877            -200.00     9400.00
04878            -280.00     9400.00
04879            -200.00     9800.00
04880            -360.00    10000.00
04881            -200.00    10200.00
04882            -280.00    10200.00
04883            -320.00    10400.00
04884            -320.00    10800.00
04885            -360.00    10800.00
04886            -360.00    10800.00
04887            -360.00    11400.00
04888            -360.00    11400.00
04889            -440.00    11600.00
04890            -400.00    11800.00
04891            -440.00    12000.00
04892            -440.00    12000.00
04893            -440.00    12200.00
04894            -480.00    12400.00
04895            -520.00    12400.00
04896            -520.00    12600.00
04897            -480.00    12800.00
04898            -520.00    13000.00
04899            -560.00    13000.00
04900            -600.00    13200.00
04901            -640.00    13200.00
04902            -640.00    13400.00
04903            -640.00    13400.00
04904            -680.00    13400.00
04905            -720.00    13400.00
04906            -760.00    13800.00
04907            -800.00    13800.00
04908            -840.00    13800.00
04909            -840.00    14000.00
04910            -920.00    14000.00
04911            -920.00    14000.00
04912            -960.00    14200.00
04913           -1000.00    14000.00
04914           -1080.00    14200.00
04915           -1080.00    14200.00
04916           -1160.00    14200.00
04917           -1240.00    14200.00
04918           -1240.00    14400.00
04919           -1320.00    14400.00
04920           -1440.00    14400.00
04921           -1480.00    14600.00
04922           -1600.00    14400.00
04923           -1640.00    14600.00
04924           -1760.00    14600.00
04925           -1880.00    14600.00
04926           -1960.00    14600.00
04927           -2120.00    14400.00
04928           -2240.00    14400.00
04929           -2360.00    14400.00
04930           -2400.00    14200.00
04931           -2520.00    14200.00
04932           -2560.00    14200.00
04933           -2600.00    14200.00
04934           -2600.00    14200.00
04935           -2600.00    14000.00
04936           -2600.00    14200.00
04937           -2520.00    14000.00
04938           -2440.00    13800.00
04939           -2360.00    13800.00
04940           -2280.00    13800.00
04941           -2160.00    13400.00
04942           -2080.00    13600.00
04943           -1920.00    13400.00
04944           -1800.00    13400.00
04945           -1680.00    13200.00
04946           -1600.00    13200.00
04947           -1480.00    13000.00
04948           -1400.00    12800.00
04949           -1320.00    12800.00
04950           -1160.00    12600.00
04951           -1120.00    12600.00
04952           -1040.00    12200.00
04953            -960.00    12200.00
04954            -960.00    12000.00
04955            -880.00    11800.00
04956            -840.00    11800.00
04957            -760.00    11600.00
04958            -720.00    11400.00
04959            -680.00    11400.00
04960            -680.00    11000.00
04961            -680.00    10800.00
04962            -640.00    10800.00
04963            -600.00    10600.00
04964            -520.00    10200.00
04965            -520.00    10200.00
04966            -520.00     9800.00
04967            -520.00     9800.00
04968            -480.00     9600.00
04969            -480.00     9400.00
04970            -480.00     9200.00
04971            -440.00     9000.00
04972            -440.00     8600.00
04973            -400.00     8600.00
04974            -360.00     8200.00
04975            -360.00     8200.00
04976            -360.00     7800.00
04977            -320.00     7600.00
04978            -320.00     7400.00
04979            -320.00     7000.00
04980            -320.00     6800.00
04981            -320.00     6600.00
04982            -320.00     6600.00
04983            -280.00     6200.00
04984            -280.00     5800.00
04985            -280.00     5800.00
04986            -240.00     5400.00
04987            -280.00     5200.00
04988            -200.00     5000.00
04989            -200.00     4600.00
04990            -200.00     4400.00
04991            -200.00     4200.00
04992            -200.00     4000.00
04993            -200.00     3600.00
04994            -200.00     3400.00
04995            -160.00     3200.00
04996            -160.00     2800.00
04997            -160.00     2600.00
04998            -160.00     2200.00
04999            -160.00     2000.00
05000            -120.00     1800.00
