Unit:(mV)
                     CH1         CH2
Frequency              ? 299.025 kHz
00001             260.00    -1800.00
00002             720.00    -2200.00
00003             540.00    -2600.00
00004            -220.00    -2600.00
00005            -500.00    -2800.00
00006            -360.00    -3000.00
00007            -400.00    -2800.00
00008             140.00    -3000.00
00009             400.00    -3800.00
00010            -200.00    -3400.00
00011             180.00    -4000.00
00012             180.00    -4200.00
00013               0.00    -3800.00
00014             260.00    -4600.00
00015              80.00    -4600.00
00016             220.00    -4600.00
00017             260.00    -5400.00
00018               0.00    -5200.00
00019             100.00    -5800.00
00020             140.00    -5400.00
00021             220.00    -6000.00
00022             160.00    -6000.00
00023             200.00    -6200.00
00024             180.00    -6600.00
00025             160.00    -6200.00
00026             300.00    -6800.00
00027             180.00    -7000.00
00028             220.00    -7000.00
00029             260.00    -7200.00
00030             220.00    -7400.00
00031             240.00    -7600.00
00032             260.00    -7600.00
00033             240.00    -8200.00
00034             260.00    -8200.00
00035             320.00    -8200.00
00036             260.00    -8600.00
00037             300.00    -8400.00
00038             340.00    -8600.00
00039             320.00    -8800.00
00040             320.00    -9000.00
00041             340.00    -9000.00
00042             320.00    -9200.00
00043             340.00    -9200.00
00044             400.00    -9400.00
00045             400.00    -9400.00
00046             400.00    -9600.00
00047             420.00    -9800.00
00048             440.00    -9800.00
00049             460.00   -10000.00
00050             500.00   -10000.00
00051             480.00   -10200.00
00052             500.00   -10400.00
00053             540.00   -10400.00
00054             540.00   -10400.00
00055             560.00   -10600.00
00056             620.00   -10600.00
00057             620.00   -10800.00
00058             640.00   -10600.00
00059             660.00   -10800.00
00060             660.00   -10800.00
00061             700.00   -11000.00
00062             740.00   -11000.00
00063             780.00   -10800.00
00064             800.00   -11000.00
00065             840.00   -11000.00
00066             860.00   -11000.00
00067             880.00   -11200.00
00068             940.00   -11200.00
00069             980.00   -11200.00
00070            1020.00   -11400.00
00071            1060.00   -11400.00
00072            1120.00   -11400.00
00073            1140.00   -11200.00
00074            1200.00   -11400.00
00075            1280.00   -11400.00
00076            1320.00   -11200.00
00077            1380.00   -11200.00
00078            1460.00   -11400.00
00079            1520.00   -11400.00
00080            1580.00   -11400.00
00081            1660.00   -11200.00
00082            1700.00   -11000.00
00083            1760.00   -11200.00
00084            1840.00   -11000.00
00085            1860.00   -11000.00
00086            1920.00   -11000.00
00087            1940.00   -11000.00
00088            1980.00   -11000.00
00089            1960.00   -10800.00
00090            1980.00   -10800.00
00091            2000.00   -10800.00
00092            1960.00   -10600.00
00093            1920.00   -10600.00
00094            1900.00   -10600.00
00095            1860.00   -10600.00
00096            1820.00   -10600.00
00097            1780.00   -10400.00
00098            1700.00   -10200.00
00099            1660.00   -10400.00
00100            1600.00   -10000.00
00101            1520.00   -10000.00
00102            1460.00   -10000.00
00103            1420.00    -9800.00
00104            1340.00    -9800.00
00105            1280.00    -9600.00
00106            1220.00    -9400.00
00107            1160.00    -9200.00
00108            1100.00    -9200.00
00109            1040.00    -9000.00
00110             980.00    -9000.00
00111             960.00    -9000.00
00112             880.00    -8600.00
00113             860.00    -8600.00
00114             800.00    -8400.00
00115             780.00    -8200.00
00116             720.00    -8200.00
00117             700.00    -8000.00
00118             660.00    -7800.00
00119             640.00    -7800.00
00120             620.00    -7600.00
00121             560.00    -7200.00
00122             560.00    -7200.00
00123             540.00    -7000.00
00124             500.00    -6800.00
00125             480.00    -6600.00
00126             460.00    -6600.00
00127             420.00    -6400.00
00128             420.00    -6200.00
00129             400.00    -6000.00
00130             380.00    -6000.00
00131             380.00    -5600.00
00132             360.00    -5400.00
00133             320.00    -5400.00
00134             320.00    -5000.00
00135             320.00    -5000.00
00136             320.00    -4600.00
00137             300.00    -4600.00
00138             300.00    -4400.00
00139             260.00    -3800.00
00140             260.00    -3800.00
00141             240.00    -3600.00
00142             220.00    -3400.00
00143             220.00    -3200.00
00144             220.00    -3000.00
00145             220.00    -2800.00
00146             200.00    -2800.00
00147             180.00    -2600.00
00148             180.00    -2200.00
00149             180.00    -2000.00
00150             160.00    -1800.00
00151             140.00    -1400.00
00152             140.00    -1400.00
00153             140.00    -1200.00
00154             140.00     -800.00
00155             140.00     -800.00
00156             120.00     -600.00
00157             140.00     -400.00
00158             100.00     -200.00
00159             100.00        0.00
00160             100.00      200.00
00161             140.00      400.00
00162             160.00      600.00
00163             160.00      800.00
00164             140.00     1000.00
00165             120.00     1200.00
00166             100.00     1400.00
00167             160.00     1600.00
00168             480.00     2000.00
00169             940.00     2200.00
00170             360.00     2400.00
00171            -560.00     2600.00
00172            -660.00     2400.00
00173            -620.00     3000.00
00174              20.00     3400.00
00175             660.00     3400.00
00176            -300.00     3400.00
00177            -140.00     3600.00
00178             260.00     3600.00
00179            -300.00     4600.00
00180               0.00     4400.00
00181             -20.00     4200.00
00182              20.00     5200.00
00183              80.00     4400.00
00184            -280.00     5200.00
00185             -60.00     5400.00
00186            -180.00     5200.00
00187             -80.00     6000.00
00188             -20.00     5800.00
00189            -220.00     6200.00
00190             -80.00     6200.00
00191            -180.00     6400.00
00192            -140.00     6800.00
00193            -160.00     6400.00
00194            -160.00     7200.00
00195            -180.00     7000.00
00196            -240.00     7200.00
00197            -160.00     7600.00
00198            -260.00     7400.00
00199            -240.00     7800.00
00200            -220.00     7800.00
00201            -180.00     8200.00
00202            -300.00     8000.00
00203            -260.00     8200.00
00204            -260.00     8600.00
00205            -320.00     8400.00
00206            -260.00     8800.00
00207            -320.00     8800.00
00208            -360.00     9000.00
00209            -360.00     9200.00
00210            -340.00     9400.00
00211            -380.00     9400.00
00212            -360.00     9400.00
00213            -400.00     9800.00
00214            -480.00     9600.00
00215            -420.00    10000.00
00216            -420.00    10000.00
00217            -460.00    10000.00
00218            -480.00    10200.00
00219            -500.00    10200.00
00220            -560.00    10200.00
00221            -540.00    10400.00
00222            -520.00    10600.00
00223            -580.00    10600.00
00224            -600.00    10600.00
00225            -640.00    10800.00
00226            -660.00    10800.00
00227            -700.00    10800.00
00228            -700.00    10800.00
00229            -740.00    11000.00
00230            -740.00    11000.00
00231            -760.00    11000.00
00232            -800.00    11000.00
00233            -860.00    11200.00
00234            -880.00    11200.00
00235            -900.00    11200.00
00236            -960.00    11400.00
00237            -980.00    11400.00
00238           -1060.00    11400.00
00239           -1100.00    11400.00
00240           -1140.00    11400.00
00241           -1180.00    11400.00
00242           -1260.00    11400.00
00243           -1300.00    11400.00
00244           -1360.00    11400.00
00245           -1420.00    11400.00
00246           -1520.00    11400.00
00247           -1580.00    11400.00
00248           -1660.00    11400.00
00249           -1700.00    11200.00
00250           -1760.00    11400.00
00251           -1800.00    11000.00
00252           -1840.00    11000.00
00253           -1900.00    11000.00
00254           -1920.00    11000.00
00255           -1960.00    11000.00
00256           -1960.00    11000.00
00257           -1980.00    10800.00
00258           -1980.00    10800.00
00259           -1980.00    10800.00
00260           -1940.00    10800.00
00261           -1920.00    10600.00
00262           -1860.00    10600.00
00263           -1820.00    10600.00
00264           -1760.00    10400.00
00265           -1740.00    10400.00
00266           -1680.00    10200.00
00267           -1600.00    10200.00
00268           -1540.00    10000.00
00269           -1460.00    10000.00
00270           -1420.00     9800.00
00271           -1360.00     9800.00
00272           -1300.00     9800.00
00273           -1220.00     9400.00
00274           -1180.00     9400.00
00275           -1100.00     9400.00
00276           -1040.00     9200.00
00277           -1020.00     9000.00
00278            -940.00     8800.00
00279            -900.00     8600.00
00280            -860.00     8600.00
00281            -820.00     8400.00
00282            -780.00     8200.00
00283            -740.00     8200.00
00284            -700.00     8000.00
00285            -660.00     8000.00
00286            -640.00     7600.00
00287            -620.00     7600.00
00288            -580.00     7400.00
00289            -560.00     7200.00
00290            -540.00     7000.00
00291            -500.00     7000.00
00292            -480.00     6800.00
00293            -480.00     6600.00
00294            -460.00     6400.00
00295            -420.00     6200.00
00296            -420.00     6000.00
00297            -400.00     5800.00
00298            -400.00     5800.00
00299            -380.00     5600.00
00300            -380.00     5400.00
00301            -340.00     5200.00
00302            -340.00     5000.00
00303            -320.00     4600.00
00304            -320.00     4400.00
00305            -300.00     4200.00
00306            -280.00     4200.00
00307            -260.00     3800.00
00308            -280.00     3800.00
00309            -240.00     3600.00
00310            -240.00     3400.00
00311            -240.00     3200.00
00312            -220.00     3000.00
00313            -220.00     2800.00
00314            -200.00     2400.00
00315            -180.00     2400.00
00316            -160.00     2000.00
00317            -160.00     1800.00
00318            -160.00     1800.00
00319            -160.00     1400.00
00320            -140.00     1200.00
00321            -140.00     1200.00
00322            -120.00      800.00
00323            -100.00      600.00
00324            -100.00      400.00
00325            -100.00      200.00
00326            -100.00        0.00
00327             -80.00     -200.00
00328             -20.00     -400.00
00329              20.00     -600.00
00330              60.00     -600.00
00331              20.00    -1000.00
00332              20.00    -1200.00
00333              20.00    -1400.00
00334              60.00    -1600.00
00335             140.00    -1800.00
00336             540.00    -1800.00
00337             740.00    -2400.00
00338             100.00    -2600.00
00339            -480.00    -2800.00
00340            -420.00    -3000.00
00341            -380.00    -2800.00
00342            -180.00    -2800.00
00343             480.00    -3600.00
00344               0.00    -3600.00
00345             -60.00    -3400.00
00346             320.00    -4400.00
00347             -20.00    -4200.00
00348             180.00    -4400.00
00349             160.00    -4600.00
00350             100.00    -4600.00
00351             320.00    -5200.00
00352              80.00    -5200.00
00353              40.00    -5600.00
00354             140.00    -5400.00
00355             160.00    -5800.00
00356             180.00    -6200.00
00357             140.00    -5800.00
00358             220.00    -6600.00
00359             140.00    -6600.00
00360             240.00    -6600.00
00361             240.00    -7000.00
00362             160.00    -7000.00
00363             280.00    -7200.00
00364             220.00    -7200.00
00365             220.00    -7600.00
00366             260.00    -7600.00
00367             240.00    -7800.00
00368             240.00    -8000.00
00369             320.00    -8000.00
00370             300.00    -8200.00
00371             260.00    -8400.00
00372             320.00    -8600.00
00373             340.00    -8600.00
00374             320.00    -9000.00
00375             340.00    -9000.00
00376             360.00    -9000.00
00377             320.00    -9200.00
00378             400.00    -9400.00
00379             400.00    -9400.00
00380             380.00    -9800.00
00381             420.00    -9800.00
00382             460.00    -9800.00
00383             440.00    -9800.00
00384             480.00   -10000.00
00385             500.00   -10000.00
00386             500.00   -10200.00
00387             520.00   -10200.00
00388             540.00   -10400.00
00389             560.00   -10600.00
00390             580.00   -10600.00
00391             640.00   -10600.00
00392             640.00   -10800.00
00393             640.00   -10800.00
00394             700.00   -10800.00
00395             700.00   -10800.00
00396             720.00   -10800.00
00397             780.00   -11000.00
00398             800.00   -11000.00
00399             800.00   -11000.00
00400             860.00   -11000.00
00401             860.00   -11000.00
00402             900.00   -11000.00
00403             960.00   -11400.00
00404            1020.00   -11400.00
00405            1020.00   -11200.00
00406            1100.00   -11400.00
00407            1120.00   -11200.00
00408            1180.00   -11200.00
00409            1220.00   -11400.00
00410            1300.00   -11200.00
00411            1360.00   -11400.00
00412            1440.00   -11200.00
00413            1460.00   -11400.00
00414            1560.00   -11400.00
00415            1600.00   -11200.00
00416            1680.00   -11200.00
00417            1760.00   -11000.00
00418            1780.00   -11000.00
00419            1860.00   -11000.00
00420            1900.00   -11000.00
00421            1920.00   -11000.00
00422            1940.00   -11000.00
00423            1980.00   -11000.00
00424            1980.00   -11000.00
00425            1980.00   -10800.00
00426            1980.00   -10800.00
00427            1940.00   -10800.00
00428            1900.00   -10600.00
00429            1860.00   -10600.00
00430            1840.00   -10600.00
00431            1820.00   -10600.00
00432            1760.00   -10400.00
00433            1660.00   -10200.00
00434            1600.00   -10000.00
00435            1540.00   -10000.00
00436            1480.00    -9800.00
00437            1440.00   -10000.00
00438            1360.00    -9800.00
00439            1300.00    -9800.00
00440            1260.00    -9400.00
00441            1180.00    -9400.00
00442            1120.00    -9400.00
00443            1060.00    -9200.00
00444            1020.00    -9000.00
00445             960.00    -9000.00
00446             900.00    -8800.00
00447             860.00    -8600.00
00448             820.00    -8400.00
00449             800.00    -8400.00
00450             740.00    -8200.00
00451             720.00    -8200.00
00452             700.00    -7800.00
00453             640.00    -7600.00
00454             620.00    -7600.00
00455             580.00    -7400.00
00456             560.00    -7200.00
00457             540.00    -7000.00
00458             520.00    -6800.00
00459             500.00    -6800.00
00460             460.00    -6600.00
00461             460.00    -6400.00
00462             420.00    -6200.00
00463             420.00    -6000.00
00464             380.00    -5800.00
00465             380.00    -5800.00
00466             380.00    -5400.00
00467             340.00    -5400.00
00468             320.00    -5200.00
00469             320.00    -5000.00
00470             320.00    -4800.00
00471             320.00    -4600.00
00472             280.00    -4400.00
00473             260.00    -4200.00
00474             260.00    -4000.00
00475             240.00    -3800.00
00476             240.00    -3400.00
00477             240.00    -3400.00
00478             220.00    -3200.00
00479             220.00    -3000.00
00480             220.00    -2800.00
00481             180.00    -2600.00
00482             180.00    -2400.00
00483             160.00    -2200.00
00484             160.00    -2000.00
00485             160.00    -1800.00
00486             140.00    -1600.00
00487             140.00    -1400.00
00488             140.00    -1200.00
00489             120.00     -800.00
00490             100.00     -600.00
00491             100.00     -400.00
00492             100.00     -400.00
00493              80.00        0.00
00494              80.00      200.00
00495             100.00      400.00
00496             160.00      600.00
00497             160.00      600.00
00498             160.00      800.00
00499             100.00     1000.00
00500             120.00     1400.00
00501             100.00     1400.00
00502             300.00     1800.00
00503             820.00     2000.00
00504             740.00     2200.00
00505            -220.00     2400.00
00506            -740.00     2600.00
00507            -620.00     2800.00
00508            -400.00     3000.00
00509             580.00     3400.00
00510             160.00     3200.00
00511            -400.00     3800.00
00512             260.00     3600.00
00513            -100.00     4000.00
00514            -180.00     4600.00
00515              80.00     3800.00
00516             -80.00     5000.00
00517             160.00     5000.00
00518            -180.00     4600.00
00519            -160.00     5800.00
00520             -80.00     5200.00
00521            -220.00     5800.00
00522              20.00     5800.00
00523            -160.00     5800.00
00524            -120.00     6400.00
00525            -140.00     6000.00
00526            -160.00     6800.00
00527            -100.00     6600.00
00528            -180.00     6800.00
00529            -160.00     7400.00
00530            -240.00     6800.00
00531            -160.00     7400.00
00532            -220.00     7400.00
00533            -260.00     7600.00
00534            -240.00     7800.00
00535            -180.00     8200.00
00536            -240.00     8200.00
00537            -300.00     8400.00
00538            -260.00     8600.00
00539            -320.00     8400.00
00540            -260.00     8600.00
00541            -300.00     8800.00
00542            -340.00     9000.00
00543            -380.00     9200.00
00544            -340.00     9200.00
00545            -340.00     9200.00
00546            -380.00     9400.00
00547            -340.00     9400.00
00548            -460.00     9600.00
00549            -420.00     9800.00
00550            -440.00    10000.00
00551            -460.00    10000.00
00552            -480.00    10000.00
00553            -480.00    10200.00
00554            -540.00    10200.00
00555            -580.00    10400.00
00556            -540.00    10600.00
00557            -560.00    10600.00
00558            -580.00    10600.00
00559            -620.00    10600.00
00560            -640.00    10600.00
00561            -700.00    10600.00
00562            -700.00    10800.00
00563            -720.00    11000.00
00564            -740.00    11000.00
00565            -740.00    11000.00
00566            -780.00    11000.00
00567            -860.00    11000.00
00568            -880.00    11200.00
00569            -900.00    11000.00
00570            -940.00    11200.00
00571            -960.00    11400.00
00572           -1020.00    11200.00
00573           -1060.00    11200.00
00574           -1120.00    11400.00
00575           -1180.00    11400.00
00576           -1220.00    11400.00
00577           -1280.00    11200.00
00578           -1340.00    11200.00
00579           -1380.00    11400.00
00580           -1460.00    11400.00
00581           -1540.00    11400.00
00582           -1600.00    11400.00
00583           -1660.00    11000.00
00584           -1700.00    11200.00
00585           -1760.00    11400.00
00586           -1840.00    11000.00
00587           -1900.00    11000.00
00588           -1920.00    11000.00
00589           -1940.00    11000.00
00590           -1980.00    11000.00
00591           -1980.00    11000.00
00592           -1980.00    10800.00
00593           -1960.00    10800.00
00594           -1940.00    10600.00
00595           -1940.00    10600.00
00596           -1900.00    10600.00
00597           -1840.00    10600.00
00598           -1820.00    10600.00
00599           -1740.00    10400.00
00600           -1700.00    10200.00
00601           -1620.00    10200.00
00602           -1580.00    10000.00
00603           -1520.00    10000.00
00604           -1440.00     9800.00
00605           -1380.00     9800.00
00606           -1300.00     9800.00
00607           -1280.00     9800.00
00608           -1200.00     9400.00
00609           -1120.00     9400.00
00610           -1100.00     9000.00
00611           -1020.00     9200.00
00612            -980.00     8800.00
00613            -940.00     8800.00
00614            -900.00     8600.00
00615            -860.00     8400.00
00616            -800.00     8200.00
00617            -740.00     8200.00
00618            -720.00     8200.00
00619            -700.00     7800.00
00620            -660.00     7800.00
00621            -640.00     7600.00
00622            -600.00     7400.00
00623            -560.00     7200.00
00624            -540.00     7200.00
00625            -520.00     7000.00
00626            -500.00     6800.00
00627            -480.00     6600.00
00628            -480.00     6400.00
00629            -460.00     6200.00
00630            -420.00     6200.00
00631            -420.00     5800.00
00632            -400.00     5800.00
00633            -380.00     5400.00
00634            -360.00     5200.00
00635            -380.00     5200.00
00636            -340.00     5000.00
00637            -320.00     5000.00
00638            -320.00     4600.00
00639            -320.00     4400.00
00640            -300.00     4200.00
00641            -280.00     3800.00
00642            -260.00     3800.00
00643            -240.00     3600.00
00644            -240.00     3400.00
00645            -240.00     3200.00
00646            -240.00     3000.00
00647            -220.00     2800.00
00648            -220.00     2600.00
00649            -180.00     2200.00
00650            -200.00     2200.00
00651            -160.00     2000.00
00652            -160.00     1800.00
00653            -160.00     1400.00
00654            -160.00     1200.00
00655            -140.00     1000.00
00656            -140.00     1000.00
00657            -100.00      600.00
00658            -100.00      400.00
00659            -100.00      400.00
00660            -100.00      200.00
00661             -60.00     -200.00
00662             -60.00     -200.00
00663              20.00     -400.00
00664              40.00     -800.00
00665              20.00     -800.00
00666               0.00    -1000.00
00667              20.00    -1200.00
00668              60.00    -1600.00
00669              80.00    -1600.00
00670             320.00    -1800.00
00671             740.00    -2200.00
00672             460.00    -2600.00
00673            -300.00    -2800.00
00674            -480.00    -3000.00
00675            -340.00    -3000.00
00676            -340.00    -2600.00
00677             260.00    -3000.00
00678             320.00    -3800.00
00679            -180.00    -3400.00
00680             240.00    -4200.00
00681             140.00    -4200.00
00682              20.00    -3800.00
00683             240.00    -5000.00
00684              60.00    -4600.00
00685             260.00    -5000.00
00686             180.00    -5200.00
00687               0.00    -5400.00
00688             100.00    -5800.00
00689             140.00    -5400.00
00690             180.00    -6000.00
00691             140.00    -6000.00
00692             180.00    -6200.00
00693             160.00    -6600.00
00694             160.00    -6200.00
00695             300.00    -6800.00
00696             160.00    -7000.00
00697             220.00    -7000.00
00698             260.00    -7200.00
00699             180.00    -7400.00
00700             240.00    -7800.00
00701             260.00    -7600.00
00702             240.00    -7800.00
00703             300.00    -8000.00
00704             320.00    -8200.00
00705             240.00    -8400.00
00706             300.00    -8600.00
00707             340.00    -8600.00
00708             320.00    -8800.00
00709             320.00    -9000.00
00710             360.00    -9000.00
00711             380.00    -9200.00
00712             380.00    -9200.00
00713             420.00    -9400.00
00714             400.00    -9600.00
00715             420.00    -9600.00
00716             440.00    -9800.00
00717             440.00    -9800.00
00718             460.00   -10000.00
00719             520.00   -10200.00
00720             500.00   -10000.00
00721             500.00   -10400.00
00722             540.00   -10200.00
00723             540.00   -10600.00
00724             580.00   -10600.00
00725             620.00   -10400.00
00726             640.00   -10600.00
00727             640.00   -10600.00
00728             660.00   -10800.00
00729             680.00   -10800.00
00730             720.00   -11000.00
00731             740.00   -11000.00
00732             780.00   -11000.00
00733             820.00   -11000.00
00734             840.00   -11000.00
00735             860.00   -11400.00
00736             880.00   -11200.00
00737             940.00   -11200.00
00738             960.00   -11200.00
00739            1020.00   -11200.00
00740            1060.00   -11400.00
00741            1100.00   -11200.00
00742            1140.00   -11200.00
00743            1200.00   -11400.00
00744            1260.00   -11400.00
00745            1320.00   -11400.00
00746            1420.00   -11400.00
00747            1440.00   -11200.00
00748            1520.00   -11400.00
00749            1580.00   -11400.00
00750            1660.00   -11000.00
00751            1720.00   -11400.00
00752            1780.00   -11200.00
00753            1840.00   -11200.00
00754            1900.00   -11200.00
00755            1900.00   -11000.00
00756            1920.00   -11000.00
00757            1960.00   -11000.00
00758            1980.00   -11000.00
00759            1980.00   -11000.00
00760            1980.00   -10800.00
00761            1960.00   -10800.00
00762            1920.00   -10600.00
00763            1900.00   -10600.00
00764            1840.00   -10600.00
00765            1800.00   -10400.00
00766            1760.00   -10200.00
00767            1700.00   -10200.00
00768            1620.00   -10200.00
00769            1580.00   -10000.00
00770            1520.00    -9800.00
00771            1460.00    -9800.00
00772            1420.00    -9800.00
00773            1340.00    -9800.00
00774            1280.00    -9400.00
00775            1200.00    -9400.00
00776            1160.00    -9200.00
00777            1080.00    -9200.00
00778            1040.00    -9000.00
00779             980.00    -9000.00
00780             940.00    -9000.00
00781             880.00    -8800.00
00782             820.00    -8600.00
00783             800.00    -8400.00
00784             780.00    -8200.00
00785             720.00    -8200.00
00786             700.00    -8000.00
00787             660.00    -7800.00
00788             640.00    -7600.00
00789             580.00    -7400.00
00790             560.00    -7200.00
00791             540.00    -7200.00
00792             540.00    -6800.00
00793             500.00    -6800.00
00794             480.00    -6600.00
00795             460.00    -6600.00
00796             420.00    -6400.00
00797             420.00    -6200.00
00798             400.00    -5800.00
00799             380.00    -5800.00
00800             380.00    -5400.00
00801             340.00    -5400.00
00802             340.00    -5200.00
00803             320.00    -5000.00
00804             320.00    -5000.00
00805             300.00    -4600.00
00806             300.00    -4400.00
00807             280.00    -4200.00
00808             260.00    -4000.00
00809             240.00    -3800.00
00810             240.00    -3600.00
00811             220.00    -3400.00
00812             220.00    -3400.00
00813             220.00    -3000.00
00814             220.00    -3000.00
00815             180.00    -2600.00
00816             180.00    -2600.00
00817             160.00    -2200.00
00818             160.00    -2200.00
00819             160.00    -1800.00
00820             140.00    -1800.00
00821             140.00    -1400.00
00822             140.00    -1200.00
00823             140.00     -800.00
00824             100.00     -800.00
00825             100.00     -600.00
00826             100.00     -400.00
00827             100.00     -200.00
00828              80.00      200.00
00829              80.00      200.00
00830             140.00      600.00
00831             180.00      600.00
00832             160.00      800.00
00833             140.00     1000.00
00834             100.00     1200.00
00835             100.00     1400.00
00836             160.00     1400.00
00837             560.00     1800.00
00838             920.00     2200.00
00839             180.00     2200.00
00840            -620.00     2600.00
00841            -660.00     2600.00
00842            -580.00     3000.00
00843             200.00     3400.00
00844             580.00     3400.00
00845            -380.00     3600.00
00846               0.00     3600.00
00847             180.00     3600.00
00848            -300.00     4600.00
00849              80.00     4200.00
00850             -60.00     4400.00
00851             100.00     5200.00
00852              20.00     4400.00
00853            -260.00     5400.00
00854             -20.00     5600.00
00855            -220.00     5200.00
00856             -20.00     6000.00
00857             -80.00     5600.00
00858            -220.00     6200.00
00859             -80.00     6200.00
00860            -200.00     6400.00
00861            -100.00     6600.00
00862            -180.00     6600.00
00863            -160.00     7200.00
00864            -220.00     6800.00
00865            -220.00     7200.00
00866            -160.00     7600.00
00867            -280.00     7400.00
00868            -240.00     7800.00
00869            -180.00     7800.00
00870            -220.00     8200.00
00871            -300.00     8200.00
00872            -260.00     8400.00
00873            -300.00     8600.00
00874            -320.00     8400.00
00875            -260.00     8800.00
00876            -340.00     8600.00
00877            -360.00     9200.00
00878            -380.00     9000.00
00879            -340.00     9400.00
00880            -380.00     9400.00
00881            -380.00     9400.00
00882            -420.00     9800.00
00883            -480.00     9800.00
00884            -440.00     9800.00
00885            -460.00    10000.00
00886            -480.00    10000.00
00887            -480.00    10200.00
00888            -500.00    10200.00
00889            -580.00    10200.00
00890            -540.00    10200.00
00891            -540.00    10600.00
00892            -580.00    10600.00
00893            -620.00    10600.00
00894            -640.00    10800.00
00895            -660.00    10800.00
00896            -700.00    10800.00
00897            -700.00    10800.00
00898            -740.00    10800.00
00899            -740.00    11000.00
00900            -780.00    11000.00
00901            -820.00    11000.00
00902            -880.00    11200.00
00903            -880.00    11200.00
00904            -900.00    11400.00
00905            -960.00    11400.00
00906            -980.00    11400.00
00907           -1060.00    11200.00
00908           -1120.00    11400.00
00909           -1140.00    11400.00
00910           -1180.00    11400.00
00911           -1280.00    11400.00
00912           -1300.00    11400.00
00913           -1360.00    11400.00
00914           -1440.00    11400.00
00915           -1520.00    11400.00
00916           -1580.00    11400.00
00917           -1640.00    11400.00
00918           -1700.00    11000.00
00919           -1740.00    11200.00
00920           -1820.00    11400.00
00921           -1860.00    11000.00
00922           -1920.00    11000.00
00923           -1920.00    11000.00
00924           -1940.00    11000.00
00925           -1980.00    11000.00
00926           -1980.00    10800.00
00927           -1940.00    10800.00
00928           -1940.00    10800.00
00929           -1940.00    10600.00
00930           -1900.00    10600.00
00931           -1860.00    10600.00
00932           -1820.00    10600.00
00933           -1760.00    10400.00
00934           -1700.00    10200.00
00935           -1660.00    10200.00
00936           -1600.00    10000.00
00937           -1520.00    10200.00
00938           -1460.00    10000.00
00939           -1380.00     9800.00
00940           -1360.00     9800.00
00941           -1300.00     9800.00
00942           -1220.00     9400.00
00943           -1180.00     9400.00
00944           -1120.00     9200.00
00945           -1060.00     9000.00
00946            -980.00     8800.00
00947            -960.00     8800.00
00948            -900.00     8600.00
00949            -880.00     8600.00
00950            -820.00     8400.00
00951            -800.00     8400.00
00952            -740.00     8200.00
00953            -720.00     8000.00
00954            -680.00     7800.00
00955            -640.00     7600.00
00956            -620.00     7600.00
00957            -580.00     7400.00
00958            -560.00     7000.00
00959            -520.00     7000.00
00960            -500.00     6800.00
00961            -500.00     6600.00
00962            -480.00     6600.00
00963            -460.00     6200.00
00964            -420.00     6200.00
00965            -420.00     6000.00
00966            -400.00     5800.00
00967            -400.00     5600.00
00968            -380.00     5400.00
00969            -340.00     5200.00
00970            -340.00     5000.00
00971            -320.00     4800.00
00972            -320.00     4600.00
00973            -300.00     4600.00
00974            -300.00     4400.00
00975            -300.00     4200.00
00976            -260.00     3800.00
00977            -260.00     3800.00
00978            -240.00     3400.00
00979            -240.00     3400.00
00980            -220.00     3000.00
00981            -220.00     3000.00
00982            -220.00     2800.00
00983            -200.00     2400.00
00984            -180.00     2200.00
00985            -160.00     2000.00
00986            -160.00     1800.00
00987            -160.00     1800.00
00988            -160.00     1400.00
00989            -140.00     1200.00
00990            -100.00     1200.00
00991            -140.00      800.00
00992            -100.00      600.00
00993            -100.00      400.00
00994            -100.00      200.00
00995             -80.00        0.00
00996             -80.00     -200.00
00997             -20.00     -400.00
00998              20.00     -600.00
00999              20.00     -800.00
01000               0.00    -1200.00
01001               0.00    -1200.00
01002              20.00    -1400.00
01003              60.00    -1600.00
01004             180.00    -1800.00
01005             620.00    -2000.00
01006             680.00    -2600.00
01007               0.00    -2600.00
01008            -500.00    -2800.00
01009            -380.00    -3000.00
01010            -400.00    -2800.00
01011             -80.00    -3000.00
01012             480.00    -3800.00
01013             -80.00    -3600.00
01014              20.00    -3600.00
01015             300.00    -4400.00
01016             -40.00    -3800.00
01017             220.00    -4600.00
01018             120.00    -4800.00
01019             140.00    -4600.00
01020             320.00    -5200.00
01021              20.00    -5000.00
01022              80.00    -5800.00
01023             140.00    -5400.00
01024             180.00    -5800.00
01025             160.00    -6000.00
01026             160.00    -5800.00
01027             180.00    -6600.00
01028             140.00    -6400.00
01029             260.00    -6600.00
01030             180.00    -7000.00
01031             160.00    -7000.00
01032             300.00    -7200.00
01033             220.00    -7200.00
01034             240.00    -7600.00
01035             260.00    -7600.00
01036             240.00    -7800.00
01037             280.00    -8200.00
01038             340.00    -8200.00
01039             280.00    -8400.00
01040             260.00    -8400.00
01041             340.00    -8600.00
01042             320.00    -8800.00
01043             320.00    -9000.00
01044             380.00    -9000.00
01045             360.00    -9000.00
01046             340.00    -9400.00
01047             400.00    -9400.00
01048             400.00    -9400.00
01049             400.00    -9400.00
01050             460.00    -9800.00
01051             420.00    -9800.00
01052             440.00    -9800.00
01053             480.00   -10000.00
01054             500.00   -10000.00
01055             500.00   -10200.00
01056             540.00   -10200.00
01057             540.00   -10200.00
01058             560.00   -10600.00
01059             620.00   -10600.00
01060             640.00   -10800.00
01061             640.00   -10600.00
01062             640.00   -10800.00
01063             700.00   -10800.00
01064             700.00   -11000.00
01065             720.00   -11000.00
01066             780.00   -10800.00
01067             800.00   -11000.00
01068             840.00   -11000.00
01069             880.00   -11400.00
01070             880.00   -11200.00
01071             900.00   -11200.00
01072             960.00   -11200.00
01073             980.00   -11400.00
01074            1040.00   -11200.00
01075            1100.00   -11400.00
01076            1120.00   -11400.00
01077            1180.00   -11200.00
01078            1220.00   -11400.00
01079            1300.00   -11400.00
01080            1360.00   -11400.00
01081            1440.00   -11200.00
01082            1500.00   -11200.00
01083            1540.00   -11400.00
01084            1620.00   -11400.00
01085            1680.00   -11000.00
01086            1740.00   -11200.00
01087            1820.00   -11200.00
01088            1840.00   -11000.00
01089            1900.00   -11200.00
01090            1920.00   -11000.00
01091            1940.00   -11000.00
01092            1940.00   -10800.00
01093            1980.00   -11000.00
01094            1980.00   -10800.00
01095            1960.00   -10800.00
01096            1920.00   -10800.00
01097            1900.00   -10800.00
01098            1860.00   -10600.00
01099            1820.00   -10600.00
01100            1780.00   -10600.00
01101            1740.00   -10400.00
01102            1660.00   -10200.00
01103            1600.00   -10200.00
01104            1540.00   -10000.00
01105            1500.00   -10000.00
01106            1440.00    -9800.00
01107            1360.00    -9800.00
01108            1280.00    -9600.00
01109            1220.00    -9400.00
01110            1180.00    -9400.00
01111            1100.00    -9200.00
01112            1040.00    -9000.00
01113            1020.00    -9000.00
01114             960.00    -8800.00
01115             900.00    -8600.00
01116             860.00    -8600.00
01117             800.00    -8600.00
01118             780.00    -8200.00
01119             740.00    -8200.00
01120             720.00    -8000.00
01121             660.00    -7800.00
01122             640.00    -7800.00
01123             620.00    -7400.00
01124             580.00    -7200.00
01125             540.00    -7200.00
01126             540.00    -7000.00
01127             500.00    -7000.00
01128             480.00    -6600.00
01129             460.00    -6600.00
01130             460.00    -6400.00
01131             420.00    -6200.00
01132             400.00    -6000.00
01133             400.00    -6000.00
01134             380.00    -5800.00
01135             340.00    -5600.00
01136             320.00    -5200.00
01137             320.00    -5000.00
01138             300.00    -5000.00
01139             320.00    -4800.00
01140             300.00    -4600.00
01141             280.00    -4400.00
01142             260.00    -4200.00
01143             240.00    -4000.00
01144             240.00    -3800.00
01145             240.00    -3400.00
01146             220.00    -3400.00
01147             220.00    -3400.00
01148             220.00    -3000.00
01149             180.00    -2800.00
01150             180.00    -2600.00
01151             160.00    -2200.00
01152             160.00    -2200.00
01153             160.00    -2000.00
01154             160.00    -1800.00
01155             160.00    -1400.00
01156             140.00    -1200.00
01157             140.00    -1000.00
01158             140.00     -800.00
01159             100.00     -600.00
01160             100.00     -400.00
01161             100.00     -200.00
01162              80.00        0.00
01163              80.00      200.00
01164             100.00      400.00
01165             160.00      600.00
01166             180.00      800.00
01167             140.00     1000.00
01168             120.00     1000.00
01169             100.00     1200.00
01170             140.00     1400.00
01171             320.00     1800.00
01172             880.00     2200.00
01173             620.00     2400.00
01174            -340.00     2200.00
01175            -700.00     2600.00
01176            -640.00     2800.00
01177            -260.00     3200.00
01178             680.00     3400.00
01179               0.00     3200.00
01180            -340.00     3600.00
01181             320.00     3600.00
01182            -180.00     4200.00
01183            -100.00     4600.00
01184              60.00     3800.00
01185             -40.00     5000.00
01186             160.00     4600.00
01187            -240.00     4600.00
01188            -100.00     5800.00
01189            -100.00     5200.00
01190            -160.00     5600.00
01191              20.00     5800.00
01192            -220.00     5800.00
01193            -100.00     6200.00
01194            -160.00     6000.00
01195            -160.00     6600.00
01196            -140.00     6600.00
01197            -180.00     6800.00
01198            -160.00     7000.00
01199            -240.00     6800.00
01200            -140.00     7600.00
01201            -260.00     7400.00
01202            -260.00     7800.00
01203            -220.00     7800.00
01204            -180.00     8000.00
01205            -280.00     8000.00
01206            -300.00     8200.00
01207            -260.00     8600.00
01208            -340.00     8400.00
01209            -260.00     8600.00
01210            -320.00     8600.00
01211            -340.00     9000.00
01212            -380.00     9200.00
01213            -360.00     9200.00
01214            -380.00     9400.00
01215            -380.00     9400.00
01216            -380.00     9800.00
01217            -480.00     9600.00
01218            -440.00     9800.00
01219            -460.00    10000.00
01220            -460.00    10000.00
01221            -480.00    10000.00
01222            -500.00    10200.00
01223            -560.00    10200.00
01224            -580.00    10600.00
01225            -540.00    10600.00
01226            -580.00    10600.00
01227            -620.00    10600.00
01228            -640.00    10600.00
01229            -640.00    10600.00
01230            -700.00    10800.00
01231            -700.00    11000.00
01232            -720.00    11000.00
01233            -740.00    11000.00
01234            -780.00    11000.00
01235            -800.00    11000.00
01236            -820.00    11200.00
01237            -880.00    11000.00
01238            -900.00    11000.00
01239            -940.00    11200.00
01240            -980.00    11400.00
01241           -1020.00    11400.00
01242           -1060.00    11400.00
01243           -1120.00    11200.00
01244           -1180.00    11400.00
01245           -1220.00    11200.00
01246           -1300.00    11400.00
01247           -1320.00    11400.00
01248           -1400.00    11400.00
01249           -1460.00    11400.00
01250           -1540.00    11200.00
01251           -1620.00    11400.00
01252           -1680.00    11200.00
01253           -1740.00    11200.00
01254           -1780.00    11000.00
01255           -1840.00    11000.00
01256           -1900.00    11000.00
01257           -1920.00    11000.00
01258           -1940.00    11000.00
01259           -1980.00    10800.00
01260           -1980.00    10800.00
01261           -1980.00    10800.00
01262           -1960.00    10600.00
01263           -1940.00    10600.00
01264           -1920.00    10600.00
01265           -1860.00    10600.00
01266           -1860.00    10600.00
01267           -1780.00    10200.00
01268           -1760.00    10400.00
01269           -1700.00    10200.00
01270           -1620.00    10200.00
01271           -1600.00    10000.00
01272           -1500.00    10000.00
01273           -1440.00     9800.00
01274           -1380.00     9800.00
01275           -1320.00     9600.00
01276           -1260.00     9400.00
01277           -1200.00     9400.00
01278           -1120.00     9200.00
01279           -1100.00     9200.00
01280           -1020.00     9000.00
01281            -960.00     8800.00
01282            -940.00     8800.00
01283            -900.00     8400.00
01284            -860.00     8400.00
01285            -800.00     8200.00
01286            -760.00     8200.00
01287            -720.00     8000.00
01288            -700.00     7800.00
01289            -660.00     7600.00
01290            -620.00     7400.00
01291            -620.00     7400.00
01292            -580.00     7400.00
01293            -560.00     7000.00
01294            -500.00     6800.00
01295            -500.00     6600.00
01296            -480.00     6600.00
01297            -460.00     6400.00
01298            -440.00     6200.00
01299            -420.00     6200.00
01300            -400.00     5800.00
01301            -400.00     5800.00
01302            -380.00     5600.00
01303            -340.00     5200.00
01304            -340.00     5200.00
01305            -320.00     5000.00
01306            -320.00     4600.00
01307            -300.00     4600.00
01308            -320.00     4400.00
01309            -260.00     4200.00
01310            -260.00     4000.00
01311            -260.00     3800.00
01312            -240.00     3600.00
01313            -240.00     3400.00
01314            -240.00     3200.00
01315            -220.00     3000.00
01316            -240.00     2800.00
01317            -220.00     2600.00
01318            -180.00     2200.00
01319            -160.00     2200.00
01320            -180.00     2000.00
01321            -160.00     1600.00
01322            -140.00     1400.00
01323            -140.00     1400.00
01324            -140.00     1000.00
01325            -140.00     1000.00
01326            -100.00      800.00
01327            -100.00      600.00
01328            -100.00      400.00
01329            -100.00      200.00
01330             -80.00     -200.00
01331             -20.00     -400.00
01332              20.00     -600.00
01333              60.00     -600.00
01334               0.00    -1000.00
01335               0.00    -1200.00
01336              20.00    -1200.00
01337              20.00    -1400.00
01338             100.00    -1800.00
01339             400.00    -2000.00
01340             760.00    -2200.00
01341             320.00    -2600.00
01342            -400.00    -2800.00
01343            -480.00    -3000.00
01344            -380.00    -3000.00
01345            -340.00    -2800.00
01346             380.00    -3400.00
01347             220.00    -3800.00
01348            -160.00    -3600.00
01349             300.00    -4400.00
01350              80.00    -4200.00
01351              80.00    -4200.00
01352             240.00    -5000.00
01353              60.00    -4600.00
01354             300.00    -5000.00
01355             160.00    -5200.00
01356               0.00    -5400.00
01357             100.00    -5600.00
01358             140.00    -5400.00
01359             220.00    -6200.00
01360             160.00    -5800.00
01361             200.00    -6200.00
01362             140.00    -6600.00
01363             220.00    -6200.00
01364             260.00    -6800.00
01365             160.00    -6800.00
01366             260.00    -7200.00
01367             240.00    -7200.00
01368             220.00    -7400.00
01369             260.00    -7600.00
01370             260.00    -7800.00
01371             220.00    -8000.00
01372             320.00    -7800.00
01373             320.00    -8200.00
01374             260.00    -8200.00
01375             320.00    -8400.00
01376             360.00    -8600.00
01377             320.00    -8800.00
01378             340.00    -9000.00
01379             380.00    -9000.00
01380             340.00    -9200.00
01381             380.00    -9400.00
01382             400.00    -9400.00
01383             400.00    -9400.00
01384             420.00    -9800.00
01385             460.00    -9800.00
01386             460.00    -9800.00
01387             480.00   -10000.00
01388             500.00   -10000.00
01389             500.00   -10200.00
01390             500.00   -10200.00
01391             540.00   -10200.00
01392             540.00   -10600.00
01393             580.00   -10400.00
01394             620.00   -10600.00
01395             640.00   -10600.00
01396             640.00   -10800.00
01397             660.00   -10800.00
01398             640.00   -11000.00
01399             700.00   -10800.00
01400             740.00   -11000.00
01401             780.00   -11000.00
01402             800.00   -11000.00
01403             860.00   -11000.00
01404             860.00   -11000.00
01405             900.00   -11200.00
01406             940.00   -11400.00
01407             980.00   -11200.00
01408            1020.00   -11400.00
01409            1060.00   -11400.00
01410            1120.00   -11400.00
01411            1160.00   -11200.00
01412            1200.00   -11400.00
01413            1280.00   -11400.00
01414            1320.00   -11200.00
01415            1400.00   -11400.00
01416            1460.00   -11200.00
01417            1540.00   -11400.00
01418            1600.00   -11400.00
01419            1660.00   -11400.00
01420            1720.00   -11000.00
01421            1780.00   -11000.00
01422            1840.00   -11400.00
01423            1880.00   -11000.00
01424            1920.00   -11000.00
01425            1940.00   -11000.00
01426            1960.00   -11000.00
01427            2000.00   -11000.00
01428            1980.00   -10800.00
01429            1980.00   -10800.00
01430            1980.00   -10600.00
01431            1920.00   -10800.00
01432            1880.00   -10600.00
01433            1840.00   -10600.00
01434            1820.00   -10600.00
01435            1760.00   -10400.00
01436            1700.00   -10200.00
01437            1620.00   -10200.00
01438            1580.00   -10000.00
01439            1500.00   -10000.00
01440            1460.00    -9800.00
01441            1380.00    -9800.00
01442            1320.00    -9600.00
01443            1260.00    -9400.00
01444            1200.00    -9400.00
01445            1120.00    -9200.00
01446            1100.00    -9200.00
01447            1040.00    -9000.00
01448             980.00    -8800.00
01449             940.00    -9000.00
01450             880.00    -8600.00
01451             820.00    -8600.00
01452             800.00    -8600.00
01453             760.00    -8400.00
01454             720.00    -8200.00
01455             700.00    -7800.00
01456             640.00    -7800.00
01457             620.00    -7600.00
01458             580.00    -7600.00
01459             560.00    -7200.00
01460             540.00    -7000.00
01461             500.00    -7000.00
01462             500.00    -6600.00
01463             480.00    -6600.00
01464             460.00    -6400.00
01465             420.00    -6200.00
01466             400.00    -6200.00
01467             380.00    -6000.00
01468             380.00    -5800.00
01469             360.00    -5600.00
01470             320.00    -5400.00
01471             320.00    -5200.00
01472             320.00    -5000.00
01473             300.00    -4600.00
01474             320.00    -4600.00
01475             300.00    -4400.00
01476             260.00    -4200.00
01477             240.00    -4000.00
01478             240.00    -3800.00
01479             220.00    -3600.00
01480             220.00    -3400.00
01481             220.00    -3200.00
01482             220.00    -3000.00
01483             200.00    -2800.00
01484             180.00    -2600.00
01485             160.00    -2600.00
01486             160.00    -2200.00
01487             160.00    -1800.00
01488             160.00    -1800.00
01489             140.00    -1600.00
01490             140.00    -1400.00
01491             120.00    -1200.00
01492             140.00    -1000.00
01493             120.00     -800.00
01494             100.00     -400.00
01495             100.00     -400.00
01496              80.00        0.00
01497              80.00        0.00
01498             100.00      400.00
01499             140.00      600.00
01500             180.00      800.00
01501             160.00     1000.00
01502             140.00     1000.00
01503             140.00     1400.00
01504             100.00     1400.00
01505             220.00     1800.00
01506             660.00     2000.00
01507             880.00     2400.00
01508              80.00     2400.00
01509            -660.00     2600.00
01510            -620.00     2600.00
01511            -540.00     3000.00
01512             380.00     3400.00
01513             480.00     3200.00
01514            -440.00     3600.00
01515             140.00     3600.00
01516             100.00     3800.00
01517            -260.00     4600.00
01518              80.00     4000.00
01519             -80.00     4600.00
01520             140.00     5000.00
01521             -60.00     4400.00
01522            -260.00     5600.00
01523             -60.00     5200.00
01524            -220.00     5200.00
01525               0.00     6000.00
01526             -80.00     5800.00
01527            -140.00     6200.00
01528             -60.00     6200.00
01529            -180.00     6600.00
01530             -80.00     6600.00
01531            -220.00     6600.00
01532            -180.00     7200.00
01533            -260.00     6600.00
01534            -240.00     7200.00
01535            -240.00     7400.00
01536            -320.00     7400.00
01537            -200.00     7800.00
01538            -160.00     7800.00
01539            -160.00     8200.00
01540            -280.00     8000.00
01541            -240.00     8400.00
01542            -320.00     8200.00
01543            -320.00     8600.00
01544            -320.00     9000.00
01545            -340.00     8600.00
01546            -360.00     9000.00
01547            -340.00     9000.00
01548            -340.00     9400.00
01549            -360.00     9400.00
01550            -340.00     9400.00
01551            -420.00     9800.00
01552            -480.00     9600.00
01553            -480.00    10000.00
01554            -480.00    10000.00
01555            -500.00    10200.00
01556            -500.00    10200.00
01557            -500.00    10200.00
01558            -540.00    10400.00
01559            -500.00    10400.00
01560            -520.00    10600.00
01561            -560.00    10600.00
01562            -620.00    10600.00
01563            -660.00    10800.00
01564            -720.00    10800.00
01565            -720.00    10800.00
01566            -720.00    11000.00
01567            -740.00    11000.00
01568            -740.00    11000.00
01569            -740.00    11200.00
01570            -800.00    11000.00
01571            -860.00    11000.00
01572            -900.00    11200.00
01573            -940.00    11200.00
01574            -980.00    11200.00
01575           -1020.00    11400.00
01576           -1060.00    11400.00
01577           -1100.00    11400.00
01578           -1120.00    11400.00
01579           -1180.00    11400.00
01580           -1260.00    11200.00
01581           -1300.00    11400.00
01582           -1380.00    11200.00
01583           -1460.00    11200.00
01584           -1540.00    11400.00
01585           -1600.00    11200.00
01586           -1660.00    11200.00
01587           -1680.00    11200.00
01588           -1760.00    11200.00
01589           -1800.00    11000.00
01590           -1840.00    11000.00
01591           -1920.00    11000.00
01592           -1940.00    11000.00
01593           -1960.00    11000.00
01594           -1980.00    10800.00
01595           -1980.00    10800.00
01596           -1960.00    10800.00
01597           -1940.00    10600.00
01598           -1940.00    10600.00
01599           -1920.00    10600.00
01600           -1860.00    10400.00
01601           -1820.00    10400.00
01602           -1760.00    10400.00
01603           -1740.00    10200.00
01604           -1660.00    10000.00
01605           -1600.00    10000.00
01606           -1540.00    10000.00
01607           -1460.00    10000.00
01608           -1400.00     9800.00
01609           -1340.00     9800.00
01610           -1280.00     9600.00
01611           -1220.00     9400.00
01612           -1180.00     9200.00
01613           -1120.00     9200.00
01614           -1060.00     9000.00
01615            -980.00     9000.00
01616            -940.00     9000.00
01617            -900.00     8600.00
01618            -860.00     8600.00
01619            -800.00     8400.00
01620            -780.00     8200.00
01621            -720.00     8200.00
01622            -700.00     7800.00
01623            -660.00     7800.00
01624            -640.00     7600.00
01625            -620.00     7400.00
01626            -560.00     7400.00
01627            -560.00     7000.00
01628            -520.00     6800.00
01629            -500.00     6800.00
01630            -480.00     6600.00
01631            -480.00     6600.00
01632            -460.00     6400.00
01633            -420.00     6200.00
01634            -400.00     6000.00
01635            -400.00     6000.00
01636            -380.00     5600.00
01637            -360.00     5400.00
01638            -340.00     5200.00
01639            -340.00     5000.00
01640            -320.00     4800.00
01641            -320.00     4600.00
01642            -300.00     4400.00
01643            -300.00     4400.00
01644            -260.00     4000.00
01645            -260.00     3800.00
01646            -240.00     3600.00
01647            -240.00     3400.00
01648            -220.00     3400.00
01649            -240.00     3000.00
01650            -240.00     2800.00
01651            -220.00     2600.00
01652            -180.00     2400.00
01653            -180.00     2200.00
01654            -180.00     2000.00
01655            -160.00     1800.00
01656            -160.00     1800.00
01657            -160.00     1400.00
01658            -140.00     1000.00
01659            -140.00     1000.00
01660            -140.00      800.00
01661            -100.00      600.00
01662            -100.00      400.00
01663            -100.00      200.00
01664             -80.00     -200.00
01665             -80.00     -200.00
01666               0.00     -600.00
01667              40.00     -600.00
01668              20.00     -800.00
01669               0.00    -1000.00
01670               0.00    -1200.00
01671              20.00    -1400.00
01672              20.00    -1600.00
01673             220.00    -1800.00
01674             660.00    -2200.00
01675             620.00    -2600.00
01676            -140.00    -2600.00
01677            -500.00    -2800.00
01678            -380.00    -3000.00
01679            -400.00    -3000.00
01680              20.00    -3000.00
01681             480.00    -3800.00
01682            -160.00    -3400.00
01683             100.00    -3800.00
01684             240.00    -4600.00
01685             -20.00    -3800.00
01686             240.00    -4600.00
01687              80.00    -4600.00
01688             180.00    -4600.00
01689             280.00    -5200.00
01690               0.00    -5200.00
01691              80.00    -5600.00
01692             120.00    -5400.00
01693             180.00    -5800.00
01694             160.00    -6200.00
01695             180.00    -6000.00
01696             160.00    -6600.00
01697             160.00    -6400.00
01698             300.00    -6800.00
01699             180.00    -6800.00
01700             220.00    -7000.00
01701             260.00    -7200.00
01702             220.00    -7200.00
01703             240.00    -7600.00
01704             260.00    -7600.00
01705             240.00    -8000.00
01706             260.00    -7800.00
01707             340.00    -8200.00
01708             280.00    -8400.00
01709             300.00    -8600.00
01710             340.00    -8600.00
01711             340.00    -8600.00
01712             320.00    -8800.00
01713             380.00    -9000.00
01714             360.00    -9200.00
01715             360.00    -9400.00
01716             400.00    -9400.00
01717             400.00    -9400.00
01718             400.00    -9600.00
01719             460.00    -9800.00
01720             420.00    -9800.00
01721             460.00   -10000.00
01722             500.00   -10000.00
01723             500.00   -10000.00
01724             500.00   -10200.00
01725             540.00   -10200.00
01726             520.00   -10200.00
01727             540.00   -10600.00
01728             620.00   -10600.00
01729             640.00   -10600.00
01730             620.00   -10800.00
01731             640.00   -10800.00
01732             660.00   -10800.00
01733             700.00   -10800.00
01734             740.00   -11000.00
01735             780.00   -11000.00
01736             800.00   -11000.00
01737             820.00   -11000.00
01738             860.00   -11000.00
01739             860.00   -11200.00
01740             900.00   -11200.00
01741             960.00   -11400.00
01742            1000.00   -11400.00
01743            1040.00   -11400.00
01744            1100.00   -11400.00
01745            1120.00   -11400.00
01746            1180.00   -11400.00
01747            1260.00   -11200.00
01748            1300.00   -11400.00
01749            1380.00   -11400.00
01750            1440.00   -11400.00
01751            1500.00   -11200.00
01752            1540.00   -11400.00
01753            1620.00   -11000.00
01754            1680.00   -11000.00
01755            1760.00   -11200.00
01756            1820.00   -11000.00
01757            1860.00   -11000.00
01758            1900.00   -11200.00
01759            1920.00   -11000.00
01760            1940.00   -11000.00
01761            1980.00   -11000.00
01762            2000.00   -11000.00
01763            1980.00   -10800.00
01764            1980.00   -10800.00
01765            1920.00   -10800.00
01766            1900.00   -10800.00
01767            1860.00   -10600.00
01768            1820.00   -10600.00
01769            1780.00   -10400.00
01770            1700.00   -10400.00
01771            1660.00   -10200.00
01772            1600.00   -10000.00
01773            1540.00   -10000.00
01774            1460.00    -9800.00
01775            1440.00    -9800.00
01776            1340.00    -9800.00
01777            1280.00    -9600.00
01778            1220.00    -9400.00
01779            1140.00    -9200.00
01780            1120.00    -9200.00
01781            1040.00    -9200.00
01782            1020.00    -9000.00
01783             940.00    -9000.00
01784             880.00    -8600.00
01785             860.00    -8600.00
01786             800.00    -8400.00
01787             760.00    -8200.00
01788             740.00    -8200.00
01789             700.00    -8000.00
01790             660.00    -8000.00
01791             620.00    -7600.00
01792             580.00    -7400.00
01793             560.00    -7400.00
01794             540.00    -7200.00
01795             540.00    -7000.00
01796             500.00    -6800.00
01797             480.00    -6800.00
01798             460.00    -6600.00
01799             420.00    -6600.00
01800             400.00    -6200.00
01801             400.00    -6000.00
01802             380.00    -5800.00
01803             380.00    -5600.00
01804             340.00    -5400.00
01805             320.00    -5200.00
01806             320.00    -5000.00
01807             300.00    -5000.00
01808             300.00    -4600.00
01809             280.00    -4600.00
01810             280.00    -4400.00
01811             260.00    -4200.00
01812             240.00    -4000.00
01813             240.00    -3600.00
01814             220.00    -3600.00
01815             220.00    -3400.00
01816             220.00    -3200.00
01817             220.00    -3000.00
01818             180.00    -2800.00
01819             180.00    -2600.00
01820             160.00    -2200.00
01821             160.00    -2000.00
01822             160.00    -1800.00
01823             160.00    -1800.00
01824             140.00    -1400.00
01825             140.00    -1200.00
01826             140.00    -1000.00
01827             120.00     -800.00
01828             120.00     -600.00
01829             100.00     -400.00
01830             100.00     -200.00
01831              80.00        0.00
01832              80.00      400.00
01833             120.00      400.00
01834             160.00      600.00
01835             160.00      800.00
01836             140.00     1000.00
01837             120.00     1200.00
01838             140.00     1400.00
01839             140.00     1400.00
01840             420.00     2000.00
01841             940.00     2200.00
01842             480.00     2200.00
01843            -460.00     2400.00
01844            -700.00     2600.00
01845            -620.00     3000.00
01846            -100.00     3400.00
01847             700.00     3400.00
01848            -160.00     3400.00
01849            -220.00     3600.00
01850             300.00     3600.00
01851            -260.00     4400.00
01852             -20.00     4400.00
01853               0.00     4200.00
01854               0.00     5000.00
01855             140.00     4400.00
01856            -260.00     4600.00
01857             -80.00     5600.00
01858            -160.00     5000.00
01859            -140.00     5800.00
01860               0.00     5800.00
01861            -240.00     6000.00
01862             -80.00     6200.00
01863            -180.00     6000.00
01864            -160.00     6600.00
01865            -160.00     6600.00
01866            -160.00     7000.00
01867            -180.00     7000.00
01868            -240.00     6800.00
01869            -160.00     7600.00
01870            -260.00     7400.00
01871            -260.00     7800.00
01872            -220.00     7800.00
01873            -180.00     8000.00
01874            -300.00     7800.00
01875            -260.00     8200.00
01876            -260.00     8600.00
01877            -320.00     8400.00
01878            -260.00     8600.00
01879            -320.00     8600.00
01880            -340.00     9000.00
01881            -380.00     9200.00
01882            -380.00     9400.00
01883            -380.00     9400.00
01884            -380.00     9400.00
01885            -380.00     9600.00
01886            -480.00     9600.00
01887            -440.00     9800.00
01888            -460.00     9800.00
01889            -460.00     9800.00
01890            -480.00    10200.00
01891            -500.00    10200.00
01892            -560.00    10200.00
01893            -540.00    10400.00
01894            -520.00    10600.00
01895            -580.00    10600.00
01896            -580.00    10600.00
01897            -620.00    10600.00
01898            -660.00    10800.00
01899            -700.00    10800.00
01900            -700.00    11000.00
01901            -720.00    11000.00
01902            -740.00    11000.00
01903            -740.00    11000.00
01904            -800.00    11400.00
01905            -860.00    11000.00
01906            -880.00    11000.00
01907            -900.00    11000.00
01908            -940.00    11400.00
01909            -960.00    11200.00
01910           -1040.00    11200.00
01911           -1080.00    11400.00
01912           -1120.00    11400.00
01913           -1180.00    11200.00
01914           -1220.00    11200.00
01915           -1280.00    11400.00
01916           -1340.00    11400.00
01917           -1420.00    11400.00
01918           -1480.00    11400.00
01919           -1540.00    11200.00
01920           -1620.00    11000.00
01921           -1680.00    11400.00
01922           -1740.00    11200.00
01923           -1800.00    11200.00
01924           -1860.00    11000.00
01925           -1900.00    11000.00
01926           -1940.00    11000.00
01927           -1940.00    11000.00
01928           -1980.00    11000.00
01929           -2000.00    10800.00
01930           -1980.00    10800.00
01931           -1980.00    10600.00
01932           -1940.00    10600.00
01933           -1940.00    10600.00
01934           -1900.00    10600.00
01935           -1840.00    10600.00
01936           -1780.00    10200.00
01937           -1760.00    10400.00
01938           -1700.00    10200.00
01939           -1620.00    10000.00
01940           -1560.00    10000.00
01941           -1480.00    10000.00
01942           -1440.00     9800.00
01943           -1380.00     9600.00
01944           -1300.00     9600.00
01945           -1240.00     9400.00
01946           -1200.00     9400.00
01947           -1120.00     9200.00
01948           -1060.00     9200.00
01949           -1000.00     9000.00
01950            -960.00     8800.00
01951            -900.00     8600.00
01952            -900.00     8600.00
01953            -840.00     8600.00
01954            -800.00     8200.00
01955            -740.00     8200.00
01956            -720.00     8000.00
01957            -700.00     7800.00
01958            -640.00     7800.00
01959            -620.00     7600.00
01960            -580.00     7400.00
01961            -560.00     7400.00
01962            -540.00     7200.00
01963            -500.00     7000.00
01964            -480.00     6800.00
01965            -480.00     6600.00
01966            -460.00     6400.00
01967            -420.00     6200.00
01968            -420.00     6200.00
01969            -400.00     6000.00
01970            -380.00     5800.00
01971            -380.00     5400.00
01972            -360.00     5400.00
01973            -340.00     5200.00
01974            -320.00     5000.00
01975            -320.00     4600.00
01976            -300.00     4600.00
01977            -280.00     4400.00
01978            -260.00     4200.00
01979            -260.00     4000.00
01980            -260.00     3800.00
01981            -240.00     3600.00
01982            -220.00     3400.00
01983            -240.00     3200.00
01984            -220.00     3000.00
01985            -220.00     2800.00
01986            -200.00     2400.00
01987            -180.00     2200.00
01988            -160.00     2000.00
01989            -180.00     1800.00
01990            -160.00     1800.00
01991            -160.00     1400.00
01992            -160.00     1200.00
01993            -160.00     1200.00
01994            -140.00     1000.00
01995            -140.00      600.00
01996            -100.00      400.00
01997            -100.00      200.00
01998            -100.00     -200.00
01999             -80.00     -200.00
02000             -60.00     -600.00
02001              20.00     -600.00
02002              20.00     -600.00
02003               0.00    -1200.00
02004               0.00    -1200.00
02005               0.00    -1200.00
02006              20.00    -1600.00
02007             100.00    -1600.00
02008             460.00    -2000.00
02009             740.00    -2400.00
02010             180.00    -2600.00
02011            -460.00    -2800.00
02012            -420.00    -3000.00
02013            -380.00    -3000.00
02014            -260.00    -3000.00
02015             420.00    -3600.00
02016             100.00    -3600.00
02017            -100.00    -3400.00
02018             320.00    -4400.00
02019               0.00    -4200.00
02020             160.00    -4200.00
02021             180.00    -5000.00
02022              80.00    -4600.00
02023             320.00    -5200.00
02024             100.00    -5000.00
02025              20.00    -5400.00
02026             140.00    -5400.00
02027             160.00    -5600.00
02028             220.00    -6200.00
02029             160.00    -5800.00
02030             220.00    -6200.00
02031             140.00    -6600.00
02032             220.00    -6600.00
02033             240.00    -6800.00
02034             160.00    -6800.00
02035             280.00    -7000.00
02036             220.00    -7000.00
02037             220.00    -7400.00
02038             260.00    -7600.00
02039             260.00    -7800.00
02040             260.00    -8200.00
02041             320.00    -8000.00
02042             320.00    -8200.00
02043             260.00    -8600.00
02044             340.00    -8600.00
02045             340.00    -8800.00
02046             320.00    -9000.00
02047             340.00    -9000.00
02048             380.00    -9000.00
02049             340.00    -9200.00
02050             380.00    -9400.00
02051             420.00    -9400.00
02052             400.00    -9800.00
02053             420.00    -9600.00
02054             420.00    -9800.00
02055             420.00    -9800.00
02056             480.00   -10200.00
02057             500.00   -10000.00
02058             500.00   -10200.00
02059             500.00   -10600.00
02060             540.00   -10200.00
02061             540.00   -10600.00
02062             580.00   -10600.00
02063             620.00   -10600.00
02064             640.00   -10800.00
02065             640.00   -10800.00
02066             660.00   -10800.00
02067             660.00   -11000.00
02068             720.00   -11000.00
02069             740.00   -11000.00
02070             780.00   -11000.00
02071             800.00   -11000.00
02072             860.00   -11000.00
02073             860.00   -11000.00
02074             880.00   -11400.00
02075             960.00   -11400.00
02076             980.00   -11400.00
02077            1040.00   -11400.00
02078            1060.00   -11200.00
02079            1120.00   -11400.00
02080            1180.00   -11200.00
02081            1220.00   -11400.00
02082            1260.00   -11200.00
02083            1360.00   -11400.00
02084            1440.00   -11400.00
02085            1460.00   -11400.00
02086            1540.00   -11400.00
02087            1620.00   -11400.00
02088            1680.00   -11200.00
02089            1740.00   -11000.00
02090            1800.00   -11200.00
02091            1840.00   -11200.00
02092            1900.00   -11200.00
02093            1920.00   -11000.00
02094            1940.00   -11000.00
02095            1980.00   -11000.00
02096            1980.00   -11000.00
02097            2000.00   -10800.00
02098            1980.00   -10800.00
02099            1940.00   -10800.00
02100            1940.00   -10600.00
02101            1880.00   -10800.00
02102            1840.00   -10600.00
02103            1820.00   -10600.00
02104            1760.00   -10600.00
02105            1660.00   -10200.00
02106            1620.00   -10000.00
02107            1560.00   -10000.00
02108            1500.00    -9800.00
02109            1440.00   -10000.00
02110            1380.00    -9600.00
02111            1300.00    -9600.00
02112            1260.00    -9600.00
02113            1180.00    -9400.00
02114            1120.00    -9400.00
02115            1060.00    -9200.00
02116            1020.00    -9000.00
02117             980.00    -9000.00
02118             900.00    -9000.00
02119             860.00    -8600.00
02120             820.00    -8600.00
02121             780.00    -8400.00
02122             740.00    -8200.00
02123             720.00    -8200.00
02124             680.00    -8000.00
02125             640.00    -7800.00
02126             620.00    -7600.00
02127             560.00    -7600.00
02128             560.00    -7200.00
02129             540.00    -7000.00
02130             500.00    -6800.00
02131             480.00    -6800.00
02132             460.00    -6600.00
02133             420.00    -6600.00
02134             400.00    -6200.00
02135             400.00    -6000.00
02136             380.00    -6000.00
02137             380.00    -5800.00
02138             340.00    -5400.00
02139             340.00    -5400.00
02140             320.00    -5200.00
02141             320.00    -5000.00
02142             300.00    -4600.00
02143             300.00    -4600.00
02144             280.00    -4600.00
02145             260.00    -4200.00
02146             260.00    -4000.00
02147             260.00    -3800.00
02148             240.00    -3600.00
02149             240.00    -3400.00
02150             240.00    -3000.00
02151             200.00    -3000.00
02152             180.00    -2800.00
02153             180.00    -2600.00
02154             180.00    -2400.00
02155             160.00    -2200.00
02156             160.00    -2000.00
02157             160.00    -1800.00
02158             160.00    -1600.00
02159             140.00    -1200.00
02160             140.00    -1200.00
02161             140.00     -800.00
02162             140.00     -600.00
02163             120.00     -400.00
02164             100.00     -200.00
02165             100.00     -200.00
02166              80.00      200.00
02167             100.00      400.00
02168             160.00      600.00
02169             160.00      800.00
02170             160.00     1000.00
02171             120.00     1000.00
02172             100.00     1400.00
02173             120.00     1600.00
02174             240.00     1800.00
02175             780.00     2000.00
02176             800.00     2200.00
02177            -100.00     2600.00
02178            -720.00     2600.00
02179            -640.00     2800.00
02180            -480.00     3200.00
02181             480.00     3400.00
02182             300.00     3400.00
02183            -440.00     3600.00
02184             220.00     3600.00
02185               0.00     3800.00
02186            -240.00     4600.00
02187             100.00     4200.00
02188             -80.00     4800.00
02189             140.00     5200.00
02190            -140.00     4200.00
02191            -200.00     5600.00
02192             -60.00     5200.00
02193            -220.00     5600.00
02194               0.00     5800.00
02195            -160.00     5800.00
02196            -160.00     6200.00
02197            -100.00     6200.00
02198            -200.00     6600.00
02199            -120.00     6600.00
02200            -220.00     6600.00
02201            -140.00     7200.00
02202            -240.00     6800.00
02203            -160.00     7400.00
02204            -220.00     7400.00
02205            -300.00     7600.00
02206            -240.00     7800.00
02207            -180.00     7800.00
02208            -240.00     8000.00
02209            -300.00     8200.00
02210            -240.00     8400.00
02211            -320.00     8400.00
02212            -280.00     8600.00
02213            -280.00     8800.00
02214            -340.00     8600.00
02215            -360.00     9200.00
02216            -360.00     9400.00
02217            -380.00     9400.00
02218            -380.00     9400.00
02219            -340.00     9800.00
02220            -460.00     9600.00
02221            -460.00     9800.00
02222            -420.00    10000.00
02223            -460.00    10000.00
02224            -480.00    10000.00
02225            -500.00    10200.00
02226            -520.00    10200.00
02227            -560.00    10400.00
02228            -500.00    10400.00
02229            -540.00    10600.00
02230            -580.00    10600.00
02231            -600.00    10600.00
02232            -640.00    10800.00
02233            -680.00    10800.00
02234            -700.00    11000.00
02235            -720.00    11000.00
02236            -740.00    10800.00
02237            -740.00    11000.00
02238            -780.00    11000.00
02239            -820.00    11000.00
02240            -880.00    11200.00
02241            -900.00    11200.00
02242            -900.00    11400.00
02243            -960.00    11200.00
02244           -1020.00    11400.00
02245           -1060.00    11400.00
02246           -1120.00    11400.00
02247           -1140.00    11400.00
02248           -1220.00    11400.00
02249           -1280.00    11400.00
02250           -1300.00    11400.00
02251           -1380.00    11200.00
02252           -1460.00    11400.00
02253           -1540.00    11400.00
02254           -1600.00    11200.00
02255           -1660.00    11400.00
02256           -1720.00    11000.00
02257           -1760.00    11200.00
02258           -1840.00    11000.00
02259           -1880.00    11000.00
02260           -1920.00    11000.00
02261           -1940.00    11000.00
02262           -1940.00    11000.00
02263           -1980.00    11000.00
02264           -1980.00    10800.00
02265           -1980.00    10800.00
02266           -1960.00    10600.00
02267           -1940.00    10600.00
02268           -1920.00    10600.00
02269           -1860.00    10600.00
02270           -1820.00    10400.00
02271           -1760.00    10400.00
02272           -1700.00    10200.00
02273           -1640.00    10000.00
02274           -1600.00    10000.00
02275           -1520.00    10200.00
02276           -1440.00     9800.00
02277           -1380.00     9800.00
02278           -1340.00     9800.00
02279           -1280.00     9600.00
02280           -1200.00     9400.00
02281           -1140.00     9400.00
02282           -1100.00     9200.00
02283           -1040.00     9000.00
02284            -980.00     9000.00
02285            -920.00     9000.00
02286            -900.00     8600.00
02287            -860.00     8400.00
02288            -820.00     8400.00
02289            -740.00     8200.00
02290            -720.00     8200.00
02291            -680.00     7800.00
02292            -660.00     7800.00
02293            -640.00     7600.00
02294            -600.00     7400.00
02295            -580.00     7400.00
02296            -540.00     7000.00
02297            -540.00     7000.00
02298            -500.00     6800.00
02299            -480.00     6800.00
02300            -480.00     6400.00
02301            -460.00     6400.00
02302            -400.00     6200.00
02303            -420.00     6000.00
02304            -380.00     5800.00
02305            -380.00     5400.00
02306            -380.00     5600.00
02307            -340.00     5200.00
02308            -340.00     5000.00
02309            -320.00     5000.00
02310            -320.00     4600.00
02311            -300.00     4400.00
02312            -300.00     4200.00
02313            -300.00     4000.00
02314            -260.00     3800.00
02315            -260.00     3600.00
02316            -240.00     3400.00
02317            -220.00     3200.00
02318            -240.00     3200.00
02319            -240.00     2800.00
02320            -220.00     2600.00
02321            -200.00     2400.00
02322            -180.00     2200.00
02323            -180.00     2000.00
02324            -180.00     1800.00
02325            -160.00     1600.00
02326            -160.00     1400.00
02327            -160.00     1200.00
02328            -140.00     1000.00
02329            -140.00      600.00
02330            -120.00      400.00
02331            -100.00      400.00
02332            -100.00      200.00
02333            -100.00     -200.00
02334             -80.00     -400.00
02335               0.00     -400.00
02336              20.00     -800.00
02337              20.00    -1000.00
02338               0.00    -1000.00
02339               0.00    -1200.00
02340              20.00    -1400.00
02341              80.00    -1400.00
02342             260.00    -1600.00
02343             720.00    -2200.00
02344             520.00    -2600.00
02345            -240.00    -2600.00
02346            -500.00    -2800.00
02347            -340.00    -3000.00
02348            -400.00    -2800.00
02349             160.00    -3200.00
02350             380.00    -3800.00
02351            -180.00    -3400.00
02352             200.00    -4200.00
02353             180.00    -4400.00
02354               0.00    -3800.00
02355             260.00    -4800.00
02356              80.00    -4600.00
02357             240.00    -4800.00
02358             240.00    -5200.00
02359               0.00    -5200.00
02360             100.00    -5800.00
02361             140.00    -5400.00
02362             220.00    -6000.00
02363             160.00    -6000.00
02364             200.00    -6000.00
02365             160.00    -6600.00
02366             160.00    -6200.00
02367             300.00    -6800.00
02368             180.00    -7000.00
02369             220.00    -7000.00
02370             260.00    -7200.00
02371             220.00    -7400.00
02372             240.00    -7600.00
02373             260.00    -7600.00
02374             240.00    -8000.00
02375             300.00    -8000.00
02376             340.00    -8200.00
02377             260.00    -8400.00
02378             300.00    -8600.00
02379             360.00    -8600.00
02380             320.00    -8800.00
02381             320.00    -9000.00
02382             340.00    -9000.00
02383             340.00    -9200.00
02384             380.00    -9200.00
02385             420.00    -9400.00
02386             400.00    -9600.00
02387             400.00    -9600.00
02388             420.00    -9800.00
02389             420.00    -9800.00
02390             460.00    -9800.00
02391             480.00   -10000.00
02392             500.00   -10000.00
02393             500.00   -10200.00
02394             540.00   -10200.00
02395             540.00   -10600.00
02396             560.00   -10400.00
02397             620.00   -10600.00
02398             620.00   -10600.00
02399             640.00   -10800.00
02400             660.00   -10800.00
02401             660.00   -10800.00
02402             700.00   -11000.00
02403             740.00   -11000.00
02404             780.00   -11000.00
02405             800.00   -11000.00
02406             840.00   -11000.00
02407             860.00   -11000.00
02408             900.00   -11000.00
02409             940.00   -11200.00
02410             980.00   -11200.00
02411            1040.00   -11400.00
02412            1040.00   -11200.00
02413            1120.00   -11400.00
02414            1140.00   -11400.00
02415            1180.00   -11400.00
02416            1260.00   -11400.00
02417            1340.00   -11400.00
02418            1380.00   -11400.00
02419            1440.00   -11400.00
02420            1520.00   -11400.00
02421            1580.00   -11400.00
02422            1640.00   -11400.00
02423            1740.00   -11400.00
02424            1760.00   -11200.00
02425            1840.00   -11200.00
02426            1900.00   -11200.00
02427            1900.00   -11000.00
02428            1940.00   -11000.00
02429            1980.00   -11000.00
02430            1980.00   -11000.00
02431            1980.00   -10800.00
02432            1980.00   -10800.00
02433            1960.00   -10800.00
02434            1940.00   -10600.00
02435            1900.00   -10600.00
02436            1860.00   -10600.00
02437            1820.00   -10600.00
02438            1780.00   -10400.00
02439            1720.00   -10200.00
02440            1660.00   -10200.00
02441            1600.00   -10000.00
02442            1520.00   -10000.00
02443            1440.00    -9800.00
02444            1380.00    -9800.00
02445            1340.00    -9800.00
02446            1260.00    -9400.00
02447            1200.00    -9400.00
02448            1140.00    -9400.00
02449            1100.00    -9200.00
02450            1040.00    -9200.00
02451            1000.00    -9000.00
02452             940.00    -9000.00
02453             880.00    -8600.00
02454             840.00    -8600.00
02455             800.00    -8400.00
02456             780.00    -8200.00
02457             720.00    -8200.00
02458             700.00    -8000.00
02459             640.00    -7800.00
02460             620.00    -7600.00
02461             580.00    -7600.00
02462             560.00    -7400.00
02463             540.00    -7000.00
02464             500.00    -7000.00
02465             500.00    -6800.00
02466             480.00    -6600.00
02467             440.00    -6600.00
02468             420.00    -6400.00
02469             400.00    -6200.00
02470             400.00    -6000.00
02471             400.00    -5800.00
02472             380.00    -5600.00
02473             340.00    -5400.00
02474             320.00    -5200.00
02475             320.00    -5000.00
02476             300.00    -5000.00
02477             300.00    -4600.00
02478             300.00    -4600.00
02479             280.00    -4400.00
02480             260.00    -4200.00
02481             260.00    -3800.00
02482             240.00    -3600.00
02483             220.00    -3400.00
02484             240.00    -3200.00
02485             220.00    -3000.00
02486             220.00    -3000.00
02487             200.00    -2600.00
02488             180.00    -2400.00
02489             180.00    -2200.00
02490             160.00    -2200.00
02491             160.00    -2000.00
02492             160.00    -1800.00
02493             140.00    -1200.00
02494             140.00    -1200.00
02495             140.00    -1000.00
02496             120.00     -800.00
02497             100.00     -600.00
02498             100.00     -400.00
02499             100.00     -200.00
02500             100.00      200.00
02501             100.00      400.00
02502             140.00      400.00
02503             160.00      600.00
02504             160.00     1000.00
02505             140.00     1000.00
02506             140.00     1200.00
02507             120.00     1400.00
02508             140.00     1800.00
02509             480.00     2000.00
02510             940.00     2200.00
02511             320.00     2200.00
02512            -560.00     2400.00
02513            -660.00     2600.00
02514            -620.00     3000.00
02515              60.00     3400.00
02516             660.00     3400.00
02517            -320.00     3400.00
02518            -100.00     3800.00
02519             240.00     3600.00
02520            -300.00     4400.00
02521               0.00     4200.00
02522             -20.00     4200.00
02523              20.00     5200.00
02524              80.00     4400.00
02525            -280.00     5200.00
02526             -60.00     5600.00
02527            -180.00     5000.00
02528            -100.00     6000.00
02529             -60.00     5600.00
02530            -220.00     6200.00
02531             -80.00     6200.00
02532            -200.00     6200.00
02533            -120.00     6600.00
02534            -160.00     6400.00
02535            -160.00     7000.00
02536            -180.00     7000.00
02537            -240.00     7000.00
02538            -160.00     7600.00
02539            -280.00     7400.00
02540            -240.00     7800.00
02541            -180.00     7800.00
02542            -180.00     8200.00
02543            -300.00     8000.00
02544            -260.00     8400.00
02545            -300.00     8600.00
02546            -320.00     8400.00
02547            -260.00     8600.00
02548            -320.00     8600.00
02549            -340.00     9200.00
02550            -380.00     9200.00
02551            -340.00     9400.00
02552            -400.00     9400.00
02553            -340.00     9600.00
02554            -400.00     9600.00
02555            -460.00     9800.00
02556            -440.00    10000.00
02557            -420.00    10000.00
02558            -460.00    10000.00
02559            -480.00    10200.00
02560            -500.00    10200.00
02561            -560.00    10200.00
02562            -540.00    10400.00
02563            -520.00    10600.00
02564            -580.00    10600.00
02565            -600.00    10600.00
02566            -620.00    10600.00
02567            -660.00    10800.00
02568            -700.00    11000.00
02569            -700.00    10800.00
02570            -740.00    11000.00
02571            -740.00    11000.00
02572            -740.00    11000.00
02573            -820.00    11000.00
02574            -880.00    11200.00
02575            -880.00    11000.00
02576            -900.00    11200.00
02577            -960.00    11400.00
02578            -980.00    11400.00
02579           -1040.00    11200.00
02580           -1100.00    11400.00
02581           -1140.00    11400.00
02582           -1180.00    11400.00
02583           -1260.00    11400.00
02584           -1300.00    11400.00
02585           -1360.00    11400.00
02586           -1440.00    11400.00
02587           -1500.00    11400.00
02588           -1540.00    11200.00
02589           -1620.00    11200.00
02590           -1700.00    11200.00
02591           -1760.00    11000.00
02592           -1820.00    11200.00
02593           -1860.00    11000.00
02594           -1900.00    11000.00
02595           -1920.00    11000.00
02596           -1940.00    11000.00
02597           -1980.00    11000.00
02598           -1980.00    10800.00
02599           -1980.00    10800.00
02600           -1980.00    10800.00
02601           -1940.00    10600.00
02602           -1920.00    10600.00
02603           -1860.00    10600.00
02604           -1820.00    10400.00
02605           -1780.00    10600.00
02606           -1720.00    10200.00
02607           -1680.00    10000.00
02608           -1620.00    10200.00
02609           -1540.00    10000.00
02610           -1500.00     9800.00
02611           -1400.00     9800.00
02612           -1360.00     9800.00
02613           -1280.00     9400.00
02614           -1220.00     9600.00
02615           -1180.00     9400.00
02616           -1120.00     9200.00
02617           -1040.00     9200.00
02618           -1000.00     9000.00
02619            -960.00     8800.00
02620            -900.00     8600.00
02621            -880.00     8600.00
02622            -820.00     8400.00
02623            -780.00     8400.00
02624            -740.00     8200.00
02625            -700.00     8000.00
02626            -660.00     7800.00
02627            -640.00     7600.00
02628            -620.00     7600.00
02629            -580.00     7400.00
02630            -560.00     7200.00
02631            -520.00     7000.00
02632            -500.00     6800.00
02633            -480.00     6800.00
02634            -480.00     6600.00
02635            -460.00     6400.00
02636            -420.00     6200.00
02637            -420.00     6000.00
02638            -400.00     6000.00
02639            -380.00     5600.00
02640            -380.00     5400.00
02641            -340.00     5200.00
02642            -340.00     5200.00
02643            -320.00     5000.00
02644            -320.00     4800.00
02645            -320.00     4400.00
02646            -300.00     4400.00
02647            -280.00     4000.00
02648            -260.00     3800.00
02649            -260.00     3800.00
02650            -240.00     3600.00
02651            -240.00     3400.00
02652            -240.00     3000.00
02653            -220.00     3000.00
02654            -220.00     2600.00
02655            -180.00     2400.00
02656            -180.00     2200.00
02657            -160.00     2200.00
02658            -160.00     1800.00
02659            -160.00     1800.00
02660            -160.00     1400.00
02661            -160.00     1200.00
02662            -140.00     1000.00
02663            -140.00      800.00
02664            -140.00      600.00
02665            -100.00      400.00
02666            -100.00      200.00
02667             -80.00        0.00
02668             -60.00     -200.00
02669             -20.00     -400.00
02670              40.00     -400.00
02671              40.00     -800.00
02672              20.00    -1000.00
02673               0.00    -1200.00
02674              20.00    -1400.00
02675              60.00    -1600.00
02676             140.00    -1800.00
02677             540.00    -1800.00
02678             740.00    -2600.00
02679              80.00    -2600.00
02680            -480.00    -2800.00
02681            -400.00    -3000.00
02682            -380.00    -2800.00
02683            -180.00    -3000.00
02684             480.00    -3600.00
02685               0.00    -3600.00
02686             -60.00    -3600.00
02687             320.00    -4400.00
02688             -20.00    -3800.00
02689             200.00    -4400.00
02690             160.00    -4800.00
02691             120.00    -4600.00
02692             340.00    -5200.00
02693              60.00    -5000.00
02694              40.00    -5400.00
02695             140.00    -5400.00
02696             160.00    -5800.00
02697             180.00    -6200.00
02698             160.00    -5800.00
02699             220.00    -6600.00
02700             140.00    -6400.00
02701             260.00    -6600.00
02702             220.00    -7000.00
02703             180.00    -7000.00
02704             280.00    -7200.00
02705             220.00    -7200.00
02706             220.00    -7600.00
02707             240.00    -7600.00
02708             240.00    -7800.00
02709             260.00    -8200.00
02710             320.00    -7800.00
02711             300.00    -8400.00
02712             260.00    -8400.00
02713             340.00    -8600.00
02714             340.00    -8600.00
02715             320.00    -9000.00
02716             320.00    -9000.00
02717             380.00    -9200.00
02718             340.00    -9400.00
02719             380.00    -9400.00
02720             400.00    -9400.00
02721             400.00    -9600.00
02722             420.00    -9800.00
02723             420.00    -9800.00
02724             440.00    -9800.00
02725             480.00   -10000.00
02726             500.00   -10000.00
02727             500.00   -10200.00
02728             540.00   -10200.00
02729             540.00   -10200.00
02730             540.00   -10600.00
02731             580.00   -10600.00
02732             620.00   -10600.00
02733             640.00   -10600.00
02734             640.00   -10800.00
02735             660.00   -10800.00
02736             680.00   -11000.00
02737             720.00   -11000.00
02738             760.00   -10800.00
02739             800.00   -11000.00
02740             800.00   -11000.00
02741             860.00   -11000.00
02742             880.00   -11000.00
02743             940.00   -11200.00
02744             940.00   -11200.00
02745            1020.00   -11400.00
02746            1040.00   -11400.00
02747            1100.00   -11200.00
02748            1120.00   -11200.00
02749            1180.00   -11400.00
02750            1260.00   -11200.00
02751            1300.00   -11200.00
02752            1360.00   -11400.00
02753            1440.00   -11400.00
02754            1500.00   -11200.00
02755            1540.00   -11400.00
02756            1620.00   -11200.00
02757            1680.00   -11400.00
02758            1760.00   -11000.00
02759            1820.00   -11000.00
02760            1860.00   -11000.00
02761            1900.00   -11000.00
02762            1920.00   -11000.00
02763            1940.00   -11000.00
02764            1980.00   -11000.00
02765            1980.00   -10800.00
02766            2000.00   -11000.00
02767            1980.00   -10800.00
02768            1940.00   -10800.00
02769            1920.00   -10600.00
02770            1860.00   -10600.00
02771            1820.00   -10600.00
02772            1780.00   -10600.00
02773            1740.00   -10200.00
02774            1660.00   -10200.00
02775            1600.00   -10000.00
02776            1540.00   -10000.00
02777            1500.00   -10000.00
02778            1440.00    -9800.00
02779            1360.00    -9800.00
02780            1300.00    -9800.00
02781            1220.00    -9400.00
02782            1180.00    -9400.00
02783            1120.00    -9400.00
02784            1060.00    -9200.00
02785            1020.00    -9000.00
02786             960.00    -8800.00
02787             900.00    -8800.00
02788             860.00    -8600.00
02789             820.00    -8600.00
02790             780.00    -8400.00
02791             740.00    -8200.00
02792             700.00    -8200.00
02793             660.00    -7800.00
02794             640.00    -7800.00
02795             620.00    -7600.00
02796             580.00    -7400.00
02797             560.00    -7200.00
02798             540.00    -7000.00
02799             520.00    -7000.00
02800             500.00    -6800.00
02801             460.00    -6600.00
02802             440.00    -6400.00
02803             400.00    -6200.00
02804             400.00    -6200.00
02805             400.00    -5800.00
02806             380.00    -5800.00
02807             380.00    -5400.00
02808             340.00    -5400.00
02809             320.00    -5200.00
02810             320.00    -5000.00
02811             320.00    -4600.00
02812             300.00    -4600.00
02813             300.00    -4400.00
02814             260.00    -4200.00
02815             240.00    -4000.00
02816             240.00    -3800.00
02817             240.00    -3600.00
02818             240.00    -3400.00
02819             220.00    -3200.00
02820             220.00    -2800.00
02821             180.00    -2800.00
02822             180.00    -2600.00
02823             180.00    -2200.00
02824             180.00    -2200.00
02825             160.00    -2000.00
02826             160.00    -1600.00
02827             140.00    -1800.00
02828             140.00    -1400.00
02829             140.00    -1200.00
02830             140.00     -800.00
02831             120.00     -600.00
02832             120.00     -400.00
02833              80.00     -400.00
02834              80.00        0.00
02835              80.00      200.00
02836             100.00      400.00
02837             160.00      600.00
02838             160.00      600.00
02839             140.00     1000.00
02840             120.00     1200.00
02841             100.00     1200.00
02842             120.00     1400.00
02843             300.00     1800.00
02844             820.00     2200.00
02845             720.00     2200.00
02846            -260.00     2600.00
02847            -740.00     2600.00
02848            -620.00     2800.00
02849            -380.00     3200.00
02850             620.00     3400.00
02851             140.00     3400.00
02852            -420.00     3600.00
02853             260.00     3600.00
02854            -100.00     4000.00
02855            -160.00     4600.00
02856              80.00     3800.00
02857             -80.00     5000.00
02858             160.00     4600.00
02859            -180.00     4600.00
02860            -160.00     5600.00
02861             -80.00     5000.00
02862            -200.00     5800.00
02863              40.00     5800.00
02864            -180.00     5800.00
02865            -100.00     6400.00
02866            -140.00     6000.00
02867            -160.00     6600.00
02868            -100.00     6600.00
02869            -180.00     6800.00
02870            -140.00     7200.00
02871            -260.00     6800.00
02872            -160.00     7400.00
02873            -240.00     7400.00
02874            -260.00     7600.00
02875            -220.00     7800.00
02876            -180.00     7800.00
02877            -260.00     8200.00
02878            -300.00     8200.00
02879            -260.00     8600.00
02880            -320.00     8400.00
02881            -260.00     8600.00
02882            -300.00     8800.00
02883            -340.00     9000.00
02884            -380.00     9200.00
02885            -340.00     9200.00
02886            -360.00     9200.00
02887            -380.00     9400.00
02888            -340.00     9600.00
02889            -460.00     9800.00
02890            -440.00     9800.00
02891            -440.00    10000.00
02892            -420.00     9800.00
02893            -480.00    10000.00
02894            -500.00    10200.00
02895            -540.00    10200.00
02896            -560.00    10200.00
02897            -500.00    10600.00
02898            -560.00    10600.00
02899            -580.00    10600.00
02900            -620.00    10600.00
02901            -640.00    10600.00
02902            -680.00    10600.00
02903            -700.00    10800.00
02904            -720.00    11000.00
02905            -740.00    10800.00
02906            -740.00    11000.00
02907            -800.00    11000.00
02908            -860.00    11200.00
02909            -880.00    11000.00
02910            -900.00    11400.00
02911            -940.00    11400.00
02912            -960.00    11200.00
02913           -1020.00    11400.00
02914           -1100.00    11200.00
02915           -1100.00    11400.00
02916           -1140.00    11400.00
02917           -1220.00    11400.00
02918           -1280.00    11200.00
02919           -1340.00    11200.00
02920           -1420.00    11400.00
02921           -1460.00    11400.00
02922           -1540.00    11200.00
02923           -1620.00    11400.00
02924           -1680.00    11200.00
02925           -1700.00    11200.00
02926           -1780.00    11000.00
02927           -1840.00    11000.00
02928           -1900.00    11000.00
02929           -1920.00    11000.00
02930           -1940.00    11000.00
02931           -1940.00    10800.00
02932           -1980.00    11000.00
02933           -1980.00    11000.00
02934           -1980.00    10800.00
02935           -1940.00    10800.00
02936           -1940.00    10600.00
02937           -1880.00    10600.00
02938           -1840.00    10600.00
02939           -1780.00    10600.00
02940           -1760.00    10400.00
02941           -1700.00    10200.00
02942           -1620.00    10200.00
02943           -1580.00    10200.00
02944           -1500.00    10000.00
02945           -1440.00     9800.00
02946           -1380.00     9800.00
02947           -1300.00     9800.00
02948           -1260.00     9600.00
02949           -1200.00     9400.00
02950           -1140.00     9400.00
02951           -1060.00     9200.00
02952           -1040.00     9000.00
02953            -960.00     9000.00
02954            -940.00     8800.00
02955            -900.00     8600.00
02956            -860.00     8600.00
02957            -800.00     8400.00
02958            -740.00     8200.00
02959            -700.00     8200.00
02960            -660.00     7800.00
02961            -660.00     7800.00
02962            -640.00     7600.00
02963            -580.00     7400.00
02964            -580.00     7400.00
02965            -540.00     7000.00
02966            -540.00     7000.00
02967            -500.00     6800.00
02968            -480.00     6600.00
02969            -460.00     6600.00
02970            -440.00     6200.00
02971            -420.00     6200.00
02972            -400.00     6000.00
02973            -400.00     5800.00
02974            -380.00     5600.00
02975            -380.00     5400.00
02976            -340.00     5200.00
02977            -340.00     5000.00
02978            -320.00     4800.00
02979            -320.00     4600.00
02980            -300.00     4400.00
02981            -300.00     4200.00
02982            -280.00     4200.00
02983            -260.00     3600.00
02984            -240.00     3600.00
02985            -240.00     3400.00
02986            -260.00     3400.00
02987            -220.00     3000.00
02988            -240.00     2800.00
02989            -220.00     2600.00
02990            -180.00     2400.00
02991            -160.00     2200.00
02992            -160.00     1800.00
02993            -160.00     1800.00
02994            -160.00     1600.00
02995            -160.00     1200.00
02996            -140.00     1000.00
02997            -120.00     1000.00
02998            -140.00      600.00
02999            -100.00      400.00
03000            -100.00      400.00
03001            -100.00      200.00
03002             -80.00     -200.00
03003             -60.00     -400.00
03004              20.00     -600.00
03005              60.00     -600.00
03006              20.00     -800.00
03007               0.00    -1000.00
03008              20.00    -1200.00
03009              40.00    -1400.00
03010              80.00    -1400.00
03011             320.00    -1800.00
03012             780.00    -2200.00
03013             420.00    -2600.00
03014            -320.00    -2600.00
03015            -480.00    -3000.00
03016            -340.00    -3000.00
03017            -360.00    -2800.00
03018             260.00    -3400.00
03019             320.00    -3800.00
03020            -180.00    -3400.00
03021             260.00    -4400.00
03022             120.00    -4200.00
03023              20.00    -4000.00
03024             240.00    -4800.00
03025              60.00    -4600.00
03026             300.00    -5000.00
03027             200.00    -5200.00
03028               0.00    -5200.00
03029             120.00    -5800.00
03030             140.00    -5400.00
03031             200.00    -6200.00
03032             140.00    -5800.00
03033             220.00    -6200.00
03034             140.00    -6600.00
03035             180.00    -6200.00
03036             280.00    -7000.00
03037             160.00    -6800.00
03038             240.00    -7000.00
03039             240.00    -7200.00
03040             220.00    -7400.00
03041             240.00    -7800.00
03042             260.00    -7600.00
03043             240.00    -8000.00
03044             300.00    -8200.00
03045             320.00    -8200.00
03046             260.00    -8400.00
03047             320.00    -8600.00
03048             340.00    -8800.00
03049             320.00    -8800.00
03050             320.00    -9000.00
03051             340.00    -9200.00
03052             340.00    -9400.00
03053             380.00    -9200.00
03054             400.00    -9400.00
03055             400.00    -9400.00
03056             420.00    -9800.00
03057             440.00    -9600.00
03058             460.00    -9800.00
03059             460.00   -10000.00
03060             500.00   -10200.00
03061             500.00   -10000.00
03062             500.00   -10200.00
03063             540.00   -10200.00
03064             540.00   -10600.00
03065             560.00   -10400.00
03066             620.00   -10600.00
03067             640.00   -10800.00
03068             640.00   -10800.00
03069             660.00   -10800.00
03070             680.00   -11000.00
03071             700.00   -10800.00
03072             740.00   -11000.00
03073             780.00   -11000.00
03074             800.00   -11000.00
03075             840.00   -11000.00
03076             860.00   -11000.00
03077             880.00   -11200.00
03078             940.00   -11200.00
03079             980.00   -11400.00
03080            1020.00   -11200.00
03081            1040.00   -11400.00
03082            1100.00   -11200.00
03083            1140.00   -11400.00
03084            1200.00   -11400.00
03085            1280.00   -11400.00
03086            1340.00   -11400.00
03087            1420.00   -11200.00
03088            1460.00   -11400.00
03089            1540.00   -11400.00
03090            1600.00   -11400.00
03091            1660.00   -11200.00
03092            1740.00   -11400.00
03093            1780.00   -11000.00
03094            1840.00   -11200.00
03095            1900.00   -11000.00
03096            1900.00   -11000.00
03097            1920.00   -11000.00
03098            1940.00   -11000.00
03099            1980.00   -11000.00
03100            2000.00   -10800.00
03101            1980.00   -10800.00
03102            1980.00   -10800.00
03103            1920.00   -10600.00
03104            1900.00   -10600.00
03105            1840.00   -10600.00
03106            1820.00   -10400.00
03107            1780.00   -10400.00
03108            1700.00   -10200.00
03109            1640.00   -10200.00
03110            1580.00   -10000.00
03111            1500.00   -10000.00
03112            1460.00   -10000.00
03113            1420.00    -9800.00
03114            1340.00    -9800.00
03115            1260.00    -9800.00
03116            1180.00    -9400.00
03117            1140.00    -9400.00
03118            1100.00    -9200.00
03119            1040.00    -9200.00
03120             980.00    -9000.00
03121             940.00    -9000.00
03122             880.00    -8600.00
03123             840.00    -8400.00
03124             800.00    -8400.00
03125             780.00    -8200.00
03126             740.00    -8200.00
03127             700.00    -7800.00
03128             640.00    -7600.00
03129             620.00    -7600.00
03130             580.00    -7400.00
03131             560.00    -7200.00
03132             560.00    -7200.00
03133             540.00    -6800.00
03134             500.00    -6800.00
03135             480.00    -6600.00
03136             460.00    -6600.00
03137             420.00    -6200.00
03138             420.00    -6200.00
03139             400.00    -6000.00
03140             400.00    -5800.00
03141             380.00    -5400.00
03142             340.00    -5400.00
03143             320.00    -5200.00
03144             320.00    -5000.00
03145             320.00    -5000.00
03146             300.00    -4600.00
03147             300.00    -4600.00
03148             260.00    -4200.00
03149             260.00    -4200.00
03150             260.00    -3800.00
03151             240.00    -3600.00
03152             220.00    -3400.00
03153             220.00    -3200.00
03154             220.00    -3000.00
03155             200.00    -2800.00
03156             200.00    -2600.00
03157             180.00    -2600.00
03158             180.00    -2200.00
03159             160.00    -2000.00
03160             160.00    -1800.00
03161             160.00    -1800.00
03162             140.00    -1200.00
03163             140.00    -1200.00
03164             120.00    -1000.00
03165             140.00     -800.00
03166             100.00     -400.00
03167             100.00     -400.00
03168             100.00     -200.00
03169              80.00      200.00
03170              80.00      200.00
03171             140.00      400.00
03172             180.00      600.00
03173             160.00      800.00
03174             140.00     1000.00
03175             100.00     1200.00
03176             100.00     1200.00
03177             160.00     1600.00
03178             580.00     2000.00
03179             940.00     2200.00
03180             180.00     2200.00
03181            -640.00     2600.00
03182            -660.00     2600.00
03183            -580.00     3000.00
03184             220.00     3400.00
03185             560.00     3400.00
03186            -400.00     3600.00
03187              20.00     3600.00
03188             160.00     3600.00
03189            -300.00     4600.00
03190              60.00     4200.00
03191             -60.00     4400.00
03192              80.00     5400.00
03193              20.00     4200.00
03194            -260.00     5200.00
03195             -60.00     5400.00
03196            -180.00     5200.00
03197             -60.00     6000.00
03198             -80.00     5800.00
03199            -180.00     6200.00
03200             -80.00     6200.00
03201            -220.00     6400.00
03202            -100.00     6600.00
03203            -180.00     6400.00
03204            -140.00     7200.00
03205            -220.00     6800.00
03206            -180.00     7400.00
03207            -180.00     7600.00
03208            -300.00     7400.00
03209            -240.00     7800.00
03210            -200.00     7800.00
03211            -220.00     8200.00
03212            -320.00     8200.00
03213            -260.00     8400.00
03214            -300.00     8400.00
03215            -320.00     8600.00
03216            -260.00     9000.00
03217            -340.00     8800.00
03218            -340.00     9000.00
03219            -380.00     9200.00
03220            -340.00     9400.00
03221            -400.00     9400.00
03222            -340.00     9400.00
03223            -420.00     9600.00
03224            -460.00     9800.00
03225            -440.00     9800.00
03226            -460.00    10000.00
03227            -480.00    10000.00
03228            -500.00    10200.00
03229            -500.00    10200.00
03230            -580.00    10200.00
03231            -540.00    10400.00
03232            -540.00    10600.00
03233            -580.00    10600.00
03234            -620.00    10600.00
03235            -620.00    10800.00
03236            -660.00    10800.00
03237            -700.00    10600.00
03238            -700.00    11000.00
03239            -740.00    11000.00
03240            -740.00    11000.00
03241            -780.00    11000.00
03242            -820.00    11000.00
03243            -880.00    11000.00
03244            -900.00    11000.00
03245            -900.00    11200.00
03246            -960.00    11200.00
03247            -980.00    11200.00
03248           -1060.00    11400.00
03249           -1100.00    11400.00
03250           -1140.00    11400.00
03251           -1200.00    11400.00
03252           -1260.00    11400.00
03253           -1300.00    11400.00
03254           -1380.00    11400.00
03255           -1440.00    11200.00
03256           -1520.00    11400.00
03257           -1580.00    11200.00
03258           -1660.00    11400.00
03259           -1700.00    11200.00
03260           -1760.00    11400.00
03261           -1820.00    11000.00
03262           -1860.00    11000.00
03263           -1920.00    11000.00
03264           -1940.00    11000.00
03265           -1940.00    11000.00
03266           -1980.00    11000.00
03267           -1980.00    10800.00
03268           -1980.00    10800.00
03269           -1940.00    10800.00
03270           -1940.00    10600.00
03271           -1920.00    10600.00
03272           -1840.00    10600.00
03273           -1820.00    10600.00
03274           -1760.00    10200.00
03275           -1700.00    10400.00
03276           -1680.00    10200.00
03277           -1600.00    10000.00
03278           -1540.00    10000.00
03279           -1460.00     9800.00
03280           -1400.00     9800.00
03281           -1340.00     9800.00
03282           -1280.00     9600.00
03283           -1220.00     9400.00
03284           -1160.00     9400.00
03285           -1100.00     9200.00
03286           -1040.00     9200.00
03287            -980.00     9000.00
03288            -940.00     9000.00
03289            -900.00     8600.00
03290            -880.00     8600.00
03291            -820.00     8400.00
03292            -780.00     8200.00
03293            -740.00     8200.00
03294            -700.00     7800.00
03295            -680.00     7800.00
03296            -660.00     7600.00
03297            -620.00     7400.00
03298            -580.00     7400.00
03299            -560.00     7200.00
03300            -540.00     7000.00
03301            -500.00     6800.00
03302            -500.00     6800.00
03303            -480.00     6400.00
03304            -460.00     6600.00
03305            -420.00     6000.00
03306            -400.00     6200.00
03307            -380.00     5800.00
03308            -400.00     5600.00
03309            -380.00     5400.00
03310            -340.00     5400.00
03311            -320.00     5000.00
03312            -320.00     5000.00
03313            -320.00     4600.00
03314            -320.00     4400.00
03315            -300.00     4200.00
03316            -300.00     4200.00
03317            -260.00     3800.00
03318            -260.00     3800.00
03319            -240.00     3400.00
03320            -240.00     3400.00
03321            -240.00     3000.00
03322            -220.00     3000.00
03323            -220.00     2600.00
03324            -180.00     2600.00
03325            -180.00     2200.00
03326            -160.00     1800.00
03327            -180.00     2000.00
03328            -160.00     1600.00
03329            -160.00     1400.00
03330            -160.00     1200.00
03331            -100.00     1000.00
03332            -120.00      800.00
03333            -100.00      600.00
03334            -100.00      400.00
03335            -100.00      200.00
03336             -80.00        0.00
03337             -60.00     -400.00
03338             -20.00     -400.00
03339              60.00     -600.00
03340              20.00     -800.00
03341              20.00    -1000.00
03342               0.00    -1200.00
03343              60.00    -1200.00
03344              60.00    -1600.00
03345             160.00    -1800.00
03346             620.00    -1800.00
03347             660.00    -2600.00
03348             -20.00    -2600.00
03349            -500.00    -2800.00
03350            -380.00    -3000.00
03351            -400.00    -2800.00
03352             -60.00    -3000.00
03353             480.00    -3800.00
03354            -100.00    -3600.00
03355              20.00    -3800.00
03356             300.00    -4600.00
03357             -60.00    -3800.00
03358             220.00    -4400.00
03359             120.00    -4600.00
03360             140.00    -4600.00
03361             320.00    -5200.00
03362              20.00    -5200.00
03363              60.00    -5600.00
03364             140.00    -5400.00
03365             180.00    -6000.00
03366             160.00    -6200.00
03367             160.00    -6000.00
03368             180.00    -6600.00
03369             140.00    -6400.00
03370             260.00    -6600.00
03371             220.00    -7000.00
03372             180.00    -6800.00
03373             300.00    -7200.00
03374             220.00    -7200.00
03375             220.00    -7600.00
03376             260.00    -7600.00
03377             240.00    -7800.00
03378             260.00    -8200.00
03379             340.00    -8200.00
03380             260.00    -8400.00
03381             280.00    -8600.00
03382             380.00    -8600.00
03383             340.00    -8600.00
03384             320.00    -9000.00
03385             340.00    -9000.00
03386             340.00    -9200.00
03387             380.00    -9200.00
03388             400.00    -9200.00
03389             400.00    -9400.00
03390             400.00    -9400.00
03391             420.00    -9600.00
03392             420.00    -9800.00
03393             440.00   -10000.00
03394             500.00   -10000.00
03395             500.00   -10200.00
03396             500.00   -10200.00
03397             540.00   -10200.00
03398             540.00   -10400.00
03399             560.00   -10400.00
03400             600.00   -10600.00
03401             640.00   -10600.00
03402             640.00   -10600.00
03403             660.00   -10800.00
03404             660.00   -10800.00
03405             700.00   -11000.00
03406             720.00   -11000.00
03407             780.00   -11000.00
03408             800.00   -11000.00
03409             820.00   -11000.00
03410             860.00   -11000.00
03411             880.00   -11000.00
03412             940.00   -11400.00
03413             960.00   -11200.00
03414            1020.00   -11200.00
03415            1040.00   -11400.00
03416            1100.00   -11400.00
03417            1140.00   -11400.00
03418            1180.00   -11400.00
03419            1260.00   -11200.00
03420            1300.00   -11400.00
03421            1360.00   -11400.00
03422            1440.00   -11400.00
03423            1500.00   -11400.00
03424            1540.00   -11400.00
03425            1620.00   -11200.00
03426            1680.00   -11400.00
03427            1740.00   -11200.00
03428            1820.00   -11000.00
03429            1860.00   -11200.00
03430            1900.00   -11000.00
03431            1920.00   -11000.00
03432            1940.00   -11000.00
03433            1980.00   -11000.00
03434            1980.00   -10800.00
03435            1980.00   -10800.00
03436            1960.00   -10600.00
03437            1920.00   -10800.00
03438            1900.00   -10600.00
03439            1860.00   -10600.00
03440            1840.00   -10600.00
03441            1780.00   -10600.00
03442            1740.00   -10200.00
03443            1660.00   -10200.00
03444            1600.00   -10000.00
03445            1540.00   -10000.00
03446            1500.00   -10000.00
03447            1440.00    -9800.00
03448            1360.00    -9800.00
03449            1280.00    -9400.00
03450            1220.00    -9400.00
03451            1180.00    -9400.00
03452            1120.00    -9400.00
03453            1060.00    -9000.00
03454            1020.00    -9000.00
03455             960.00    -9000.00
03456             900.00    -8600.00
03457             860.00    -8600.00
03458             820.00    -8600.00
03459             780.00    -8400.00
03460             740.00    -8200.00
03461             720.00    -7800.00
03462             660.00    -7800.00
03463             640.00    -7600.00
03464             620.00    -7600.00
03465             580.00    -7200.00
03466             560.00    -7400.00
03467             540.00    -7000.00
03468             540.00    -6800.00
03469             500.00    -6800.00
03470             460.00    -6600.00
03471             440.00    -6400.00
03472             420.00    -6200.00
03473             400.00    -6000.00
03474             400.00    -5800.00
03475             380.00    -5800.00
03476             340.00    -5400.00
03477             340.00    -5400.00
03478             320.00    -5000.00
03479             320.00    -5000.00
03480             300.00    -4600.00
03481             300.00    -4600.00
03482             300.00    -4400.00
03483             260.00    -4200.00
03484             240.00    -4200.00
03485             240.00    -3600.00
03486             240.00    -3600.00
03487             220.00    -3400.00
03488             220.00    -3200.00
03489             220.00    -3000.00
03490             180.00    -2800.00
03491             180.00    -2600.00
03492             180.00    -2200.00
03493             160.00    -2000.00
03494             160.00    -2000.00
03495             140.00    -1800.00
03496             140.00    -1600.00
03497             140.00    -1200.00
03498             140.00    -1000.00
03499             120.00     -800.00
03500             100.00     -800.00
03501             120.00     -400.00
03502              80.00     -200.00
03503              80.00     -200.00
03504             100.00      200.00
03505             100.00      200.00
03506             160.00      600.00
03507             160.00      800.00
03508             140.00     1000.00
03509             120.00     1200.00
03510             100.00     1400.00
03511             140.00     1400.00
03512             340.00     1800.00
03513             880.00     2200.00
03514             620.00     2200.00
03515            -340.00     2400.00
03516            -720.00     2600.00
03517            -620.00     3000.00
03518            -260.00     3200.00
03519             660.00     3400.00
03520             -20.00     3400.00
03521            -320.00     3800.00
03522             300.00     3600.00
03523            -180.00     4200.00
03524            -100.00     4600.00
03525              60.00     4000.00
03526             -60.00     5200.00
03527             160.00     4600.00
03528            -240.00     4600.00
03529            -100.00     5800.00
03530            -100.00     5200.00
03531            -160.00     6000.00
03532              20.00     5800.00
03533            -180.00     6000.00
03534             -80.00     6200.00
03535            -160.00     6000.00
03536            -160.00     6800.00
03537            -140.00     6600.00
03538            -180.00     7000.00
03539            -140.00     7000.00
03540            -240.00     6800.00
03541            -160.00     7400.00
03542            -260.00     7400.00
03543            -260.00     7600.00
03544            -220.00     7800.00
03545            -180.00     8000.00
03546            -260.00     8000.00
03547            -300.00     8200.00
03548            -260.00     8600.00
03549            -340.00     8600.00
03550            -260.00     8800.00
03551            -320.00     8800.00
03552            -340.00     9000.00
03553            -380.00     9200.00
03554            -360.00     9200.00
03555            -380.00     9400.00
03556            -380.00     9400.00
03557            -380.00     9600.00
03558            -460.00     9800.00
03559            -460.00     9800.00
03560            -420.00    10000.00
03561            -460.00    10000.00
03562            -480.00    10000.00
03563            -500.00    10200.00
03564            -560.00    10200.00
03565            -560.00    10400.00
03566            -500.00    10600.00
03567            -580.00    10600.00
03568            -600.00    10600.00
03569            -640.00    10600.00
03570            -660.00    10800.00
03571            -700.00    10800.00
03572            -720.00    10800.00
03573            -740.00    11000.00
03574            -740.00    11000.00
03575            -780.00    11000.00
03576            -800.00    11000.00
03577            -860.00    11200.00
03578            -880.00    11000.00
03579            -900.00    11200.00
03580            -960.00    11000.00
03581            -960.00    11200.00
03582           -1040.00    11400.00
03583           -1060.00    11400.00
03584           -1120.00    11400.00
03585           -1160.00    11400.00
03586           -1220.00    11400.00
03587           -1280.00    11200.00
03588           -1340.00    11400.00
03589           -1420.00    11400.00
03590           -1460.00    11400.00
03591           -1540.00    11400.00
03592           -1620.00    11200.00
03593           -1660.00    11000.00
03594           -1700.00    11200.00
03595           -1780.00    11400.00
03596           -1840.00    11000.00
03597           -1900.00    11000.00
03598           -1940.00    11000.00
03599           -1940.00    11000.00
03600           -1980.00    10800.00
03601           -1960.00    11000.00
03602           -1960.00    10800.00
03603           -1940.00    10800.00
03604           -1940.00    10600.00
03605           -1920.00    10800.00
03606           -1880.00    10600.00
03607           -1840.00    10600.00
03608           -1780.00    10400.00
03609           -1740.00    10200.00
03610           -1680.00    10200.00
03611           -1620.00    10200.00
03612           -1580.00    10000.00
03613           -1500.00    10000.00
03614           -1420.00     9800.00
03615           -1380.00     9800.00
03616           -1300.00     9600.00
03617           -1240.00     9400.00
03618           -1200.00     9400.00
03619           -1140.00     9400.00
03620           -1100.00     9200.00
03621           -1020.00     9200.00
03622            -960.00     8800.00
03623            -940.00     8600.00
03624            -900.00     8600.00
03625            -820.00     8400.00
03626            -800.00     8200.00
03627            -740.00     8200.00
03628            -720.00     8000.00
03629            -700.00     7800.00
03630            -660.00     7600.00
03631            -640.00     7600.00
03632            -600.00     7400.00
03633            -560.00     7400.00
03634            -560.00     7000.00
03635            -520.00     6800.00
03636            -480.00     6800.00
03637            -480.00     6600.00
03638            -460.00     6400.00
03639            -420.00     6200.00
03640            -420.00     6200.00
03641            -400.00     6000.00
03642            -400.00     5600.00
03643            -380.00     5400.00
03644            -380.00     5200.00
03645            -340.00     5200.00
03646            -320.00     5000.00
03647            -320.00     5000.00
03648            -300.00     4600.00
03649            -320.00     4400.00
03650            -260.00     4000.00
03651            -280.00     4000.00
03652            -260.00     3800.00
03653            -260.00     3600.00
03654            -240.00     3400.00
03655            -220.00     3000.00
03656            -220.00     3000.00
03657            -220.00     2800.00
03658            -200.00     2600.00
03659            -180.00     2200.00
03660            -180.00     2000.00
03661            -160.00     1800.00
03662            -160.00     1800.00
03663            -160.00     1400.00
03664            -140.00     1200.00
03665            -140.00     1200.00
03666            -140.00     1000.00
03667            -120.00      800.00
03668            -100.00      400.00
03669            -100.00      200.00
03670             -80.00        0.00
03671             -80.00     -200.00
03672             -40.00     -400.00
03673               0.00     -600.00
03674              60.00     -800.00
03675               0.00     -800.00
03676               0.00    -1200.00
03677              20.00    -1200.00
03678              60.00    -1400.00
03679             100.00    -1400.00
03680             380.00    -1800.00
03681             780.00    -2400.00
03682             320.00    -2600.00
03683            -400.00    -2600.00
03684            -480.00    -3000.00
03685            -360.00    -3000.00
03686            -320.00    -2800.00
03687             340.00    -3400.00
03688             220.00    -3600.00
03689            -160.00    -3400.00
03690             300.00    -4400.00
03691              40.00    -4200.00
03692              80.00    -4200.00
03693             220.00    -5000.00
03694              60.00    -4600.00
03695             320.00    -5000.00
03696             140.00    -5200.00
03697              20.00    -5400.00
03698             100.00    -5600.00
03699             140.00    -5600.00
03700             180.00    -6200.00
03701             160.00    -6000.00
03702             220.00    -6400.00
03703             120.00    -6600.00
03704             220.00    -6200.00
03705             260.00    -7000.00
03706             160.00    -7000.00
03707             260.00    -7200.00
03708             240.00    -7400.00
03709             220.00    -7400.00
03710             240.00    -7800.00
03711             260.00    -7600.00
03712             240.00    -8200.00
03713             320.00    -7800.00
03714             320.00    -8400.00
03715             260.00    -8400.00
03716             320.00    -8600.00
03717             340.00    -8800.00
03718             320.00    -8800.00
03719             320.00    -9000.00
03720             380.00    -9000.00
03721             380.00    -9200.00
03722             380.00    -9400.00
03723             420.00    -9400.00
03724             400.00    -9800.00
03725             420.00    -9600.00
03726             460.00    -9800.00
03727             440.00    -9800.00
03728             480.00   -10000.00
03729             500.00   -10000.00
03730             500.00   -10200.00
03731             540.00   -10200.00
03732             540.00   -10200.00
03733             540.00   -10400.00
03734             580.00   -10200.00
03735             620.00   -10600.00
03736             640.00   -10800.00
03737             640.00   -10600.00
03738             660.00   -10800.00
03739             660.00   -10800.00
03740             720.00   -11000.00
03741             780.00   -11000.00
03742             780.00   -11000.00
03743             800.00   -11000.00
03744             860.00   -11000.00
03745             860.00   -11000.00
03746             880.00   -11400.00
03747             940.00   -11200.00
03748             980.00   -11400.00
03749            1020.00   -11400.00
03750            1060.00   -11400.00
03751            1100.00   -11400.00
03752            1140.00   -11400.00
03753            1200.00   -11400.00
03754            1280.00   -11400.00
03755            1340.00   -11400.00
03756            1420.00   -11400.00
03757            1480.00   -11400.00
03758            1520.00   -11400.00
03759            1600.00   -11000.00
03760            1660.00   -11200.00
03761            1740.00   -11400.00
03762            1780.00   -11200.00
03763            1840.00   -11000.00
03764            1900.00   -11000.00
03765            1920.00   -11200.00
03766            1920.00   -11000.00
03767            1940.00   -11000.00
03768            1980.00   -11000.00
03769            1980.00   -10800.00
03770            1980.00   -11000.00
03771            1940.00   -10800.00
03772            1920.00   -10600.00
03773            1900.00   -10600.00
03774            1840.00   -10600.00
03775            1800.00   -10600.00
03776            1760.00   -10400.00
03777            1700.00   -10200.00
03778            1620.00   -10000.00
03779            1580.00   -10000.00
03780            1500.00   -10000.00
03781            1460.00   -10000.00
03782            1380.00    -9800.00
03783            1340.00    -9800.00
03784            1260.00    -9600.00
03785            1180.00    -9400.00
03786            1140.00    -9200.00
03787            1080.00    -9200.00
03788            1040.00    -9000.00
03789             980.00    -9000.00
03790             940.00    -8800.00
03791             880.00    -8600.00
03792             860.00    -8600.00
03793             800.00    -8400.00
03794             780.00    -8400.00
03795             720.00    -8200.00
03796             700.00    -7800.00
03797             660.00    -7800.00
03798             620.00    -7400.00
03799             580.00    -7400.00
03800             560.00    -7200.00
03801             540.00    -7200.00
03802             540.00    -7000.00
03803             480.00    -6800.00
03804             480.00    -6600.00
03805             460.00    -6600.00
03806             420.00    -6200.00
03807             400.00    -6200.00
03808             400.00    -6000.00
03809             400.00    -5800.00
03810             380.00    -5600.00
03811             340.00    -5400.00
03812             320.00    -5200.00
03813             320.00    -5000.00
03814             320.00    -5000.00
03815             320.00    -4600.00
03816             300.00    -4400.00
03817             260.00    -4400.00
03818             260.00    -4000.00
03819             240.00    -3800.00
03820             240.00    -3600.00
03821             220.00    -3400.00
03822             220.00    -3200.00
03823             220.00    -3000.00
03824             220.00    -2800.00
03825             180.00    -2600.00
03826             160.00    -2600.00
03827             180.00    -2200.00
03828             160.00    -2000.00
03829             160.00    -1800.00
03830             140.00    -1600.00
03831             140.00    -1400.00
03832             140.00    -1200.00
03833             100.00     -800.00
03834             120.00     -600.00
03835             100.00     -600.00
03836             100.00     -400.00
03837              80.00     -200.00
03838             100.00      200.00
03839              80.00      400.00
03840             140.00      400.00
03841             180.00      600.00
03842             160.00     1000.00
03843             140.00     1200.00
03844             140.00     1200.00
03845             140.00     1400.00
03846             220.00     1600.00
03847             660.00     2000.00
03848             880.00     2200.00
03849              60.00     2400.00
03850            -740.00     2200.00
03851            -700.00     2800.00
03852            -580.00     3000.00
03853             400.00     3400.00
03854             500.00     3200.00
03855            -340.00     3800.00
03856             180.00     3600.00
03857             140.00     3800.00
03858            -280.00     4600.00
03859              20.00     4200.00
03860            -140.00     4600.00
03861              80.00     5200.00
03862             -60.00     4400.00
03863            -260.00     5600.00
03864             -20.00     5400.00
03865            -160.00     5400.00
03866              20.00     6000.00
03867             -80.00     5600.00
03868            -160.00     6200.00
03869            -100.00     6000.00
03870            -240.00     6600.00
03871            -160.00     6600.00
03872            -220.00     6600.00
03873            -140.00     7400.00
03874            -220.00     6800.00
03875            -160.00     7400.00
03876            -160.00     7400.00
03877            -260.00     7600.00
03878            -240.00     7800.00
03879            -240.00     7800.00
03880            -260.00     8200.00
03881            -340.00     8200.00
03882            -300.00     8600.00
03883            -340.00     8400.00
03884            -300.00     8600.00
03885            -260.00     8800.00
03886            -320.00     8800.00
03887            -340.00     9000.00
03888            -340.00     9200.00
03889            -400.00     9200.00
03890            -420.00     9400.00
03891            -380.00     9600.00
03892            -460.00     9800.00
03893            -460.00     9800.00
03894            -440.00    10000.00
03895            -420.00    10000.00
03896            -460.00    10200.00
03897            -480.00    10200.00
03898            -540.00    10200.00
03899            -580.00    10400.00
03900            -560.00    10600.00
03901            -580.00    10600.00
03902            -580.00    10600.00
03903            -580.00    10600.00
03904            -620.00    10800.00
03905            -640.00    10800.00
03906            -660.00    10800.00
03907            -720.00    11000.00
03908            -740.00    10800.00
03909            -780.00    11000.00
03910            -800.00    11000.00
03911            -860.00    11200.00
03912            -880.00    11200.00
03913            -900.00    11400.00
03914            -940.00    11200.00
03915            -940.00    11400.00
03916           -1020.00    11400.00
03917           -1060.00    11400.00
03918           -1100.00    11400.00
03919           -1140.00    11400.00
03920           -1200.00    11400.00
03921           -1280.00    11200.00
03922           -1300.00    11400.00
03923           -1360.00    11200.00
03924           -1440.00    11200.00
03925           -1520.00    11400.00
03926           -1600.00    11200.00
03927           -1660.00    11400.00
03928           -1700.00    11200.00
03929           -1760.00    11000.00
03930           -1840.00    11200.00
03931           -1860.00    11000.00
03932           -1920.00    11000.00
03933           -1940.00    11000.00
03934           -1940.00    11200.00
03935           -1960.00    11000.00
03936           -1980.00    10800.00
03937           -1960.00    10800.00
03938           -1940.00    10800.00
03939           -1940.00    10600.00
03940           -1920.00    10600.00
03941           -1860.00    10600.00
03942           -1820.00    10600.00
03943           -1760.00    10400.00
03944           -1700.00    10200.00
03945           -1660.00    10200.00
03946           -1600.00    10200.00
03947           -1520.00    10200.00
03948           -1460.00     9800.00
03949           -1380.00     9800.00
03950           -1340.00     9800.00
03951           -1280.00     9400.00
03952           -1220.00     9400.00
03953           -1140.00     9200.00
03954           -1100.00     9200.00
03955           -1060.00     9000.00
03956            -980.00     9000.00
03957            -960.00     8600.00
03958            -900.00     8600.00
03959            -880.00     8400.00
03960            -820.00     8400.00
03961            -780.00     8200.00
03962            -720.00     8200.00
03963            -700.00     7800.00
03964            -680.00     7800.00
03965            -640.00     7600.00
03966            -620.00     7400.00
03967            -580.00     7200.00
03968            -560.00     7400.00
03969            -540.00     7000.00
03970            -500.00     6800.00
03971            -480.00     6600.00
03972            -480.00     6600.00
03973            -460.00     6200.00
03974            -420.00     6200.00
03975            -400.00     6000.00
03976            -380.00     5800.00
03977            -380.00     5600.00
03978            -380.00     5400.00
03979            -340.00     5200.00
03980            -340.00     5000.00
03981            -320.00     4800.00
03982            -320.00     4600.00
03983            -300.00     4400.00
03984            -300.00     4200.00
03985            -260.00     4200.00
03986            -260.00     3800.00
03987            -240.00     3600.00
03988            -240.00     3400.00
03989            -240.00     3400.00
03990            -220.00     3000.00
03991            -220.00     2800.00
03992            -220.00     2600.00
03993            -200.00     2400.00
03994            -160.00     2200.00
03995            -160.00     2000.00
03996            -160.00     1800.00
03997            -160.00     1800.00
03998            -160.00     1400.00
03999            -140.00     1200.00
04000            -120.00     1000.00
04001            -120.00      800.00
04002            -100.00      600.00
04003            -100.00      400.00
04004            -100.00      200.00
04005            -100.00     -200.00
04006             -60.00     -200.00
04007             -20.00     -400.00
04008              60.00     -600.00
04009              20.00     -800.00
04010               0.00    -1000.00
04011              20.00    -1200.00
04012              20.00    -1400.00
04013              60.00    -1600.00
04014             220.00    -1800.00
04015             660.00    -2200.00
04016             600.00    -2600.00
04017            -140.00    -2600.00
04018            -500.00    -2800.00
04019            -380.00    -3000.00
04020            -400.00    -3000.00
04021              20.00    -3000.00
04022             460.00    -3600.00
04023            -160.00    -3400.00
04024             120.00    -3800.00
04025             220.00    -4400.00
04026             -20.00    -3800.00
04027             240.00    -4800.00
04028              80.00    -4800.00
04029             180.00    -4600.00
04030             280.00    -5200.00
04031               0.00    -5000.00
04032              80.00    -5800.00
04033             140.00    -5400.00
04034             180.00    -5800.00
04035             160.00    -6000.00
04036             180.00    -6000.00
04037             180.00    -6600.00
04038             140.00    -6200.00
04039             300.00    -6800.00
04040             180.00    -6800.00
04041             200.00    -7000.00
04042             260.00    -7200.00
04043             200.00    -7400.00
04044             240.00    -7600.00
04045             260.00    -7600.00
04046             240.00    -7800.00
04047             280.00    -8200.00
04048             340.00    -8000.00
04049             280.00    -8400.00
04050             300.00    -8600.00
04051             380.00    -8600.00
04052             320.00    -8800.00
04053             340.00    -9000.00
04054             360.00    -9000.00
04055             340.00    -9200.00
04056             340.00    -9400.00
04057             400.00    -9400.00
04058             400.00    -9600.00
04059             420.00    -9600.00
04060             460.00    -9800.00
04061             440.00    -9800.00
04062             460.00   -10000.00
04063             480.00   -10000.00
04064             500.00   -10200.00
04065             500.00   -10200.00
04066             540.00   -10200.00
04067             540.00   -10400.00
04068             560.00   -10600.00
04069             620.00   -10600.00
04070             620.00   -10600.00
04071             640.00   -10600.00
04072             660.00   -10800.00
04073             660.00   -10600.00
04074             700.00   -11000.00
04075             740.00   -11000.00
04076             780.00   -11000.00
04077             780.00   -11200.00
04078             820.00   -11000.00
04079             860.00   -11200.00
04080             880.00   -11200.00
04081             940.00   -11400.00
04082             960.00   -11400.00
04083            1020.00   -11400.00
04084            1040.00   -11400.00
04085            1100.00   -11400.00
04086            1140.00   -11400.00
04087            1180.00   -11400.00
04088            1260.00   -11400.00
04089            1280.00   -11400.00
04090            1360.00   -11400.00
04091            1440.00   -11400.00
04092            1500.00   -11400.00
04093            1560.00   -11400.00
04094            1620.00   -11400.00
04095            1700.00   -11200.00
04096            1760.00   -11400.00
04097            1840.00   -11200.00
04098            1860.00   -11000.00
04099            1900.00   -11000.00
04100            1920.00   -11000.00
04101            1960.00   -11000.00
04102            1980.00   -11000.00
04103            1980.00   -10800.00
04104            2000.00   -10800.00
04105            1940.00   -11000.00
04106            1920.00   -10600.00
04107            1900.00   -10600.00
04108            1860.00   -10600.00
04109            1820.00   -10400.00
04110            1760.00   -10400.00
04111            1740.00   -10200.00
04112            1660.00   -10200.00
04113            1600.00   -10200.00
04114            1520.00   -10000.00
04115            1500.00   -10000.00
04116            1420.00    -9800.00
04117            1340.00    -9800.00
04118            1280.00    -9600.00
04119            1200.00    -9400.00
04120            1180.00    -9400.00
04121            1100.00    -9200.00
04122            1040.00    -9000.00
04123            1000.00    -9200.00
04124             960.00    -8800.00
04125             900.00    -8600.00
04126             860.00    -8600.00
04127             800.00    -8400.00
04128             780.00    -8200.00
04129             720.00    -8200.00
04130             700.00    -8000.00
04131             660.00    -7800.00
04132             620.00    -7800.00
04133             620.00    -7600.00
04134             560.00    -7200.00
04135             540.00    -7000.00
04136             540.00    -7000.00
04137             500.00    -6800.00
04138             480.00    -6800.00
04139             460.00    -6600.00
04140             420.00    -6400.00
04141             400.00    -6200.00
04142             380.00    -6000.00
04143             380.00    -5800.00
04144             380.00    -5600.00
04145             340.00    -5600.00
04146             340.00    -5400.00
04147             320.00    -5200.00
04148             320.00    -5000.00
04149             300.00    -4800.00
04150             300.00    -4600.00
04151             280.00    -4400.00
04152             260.00    -4200.00
04153             240.00    -4000.00
04154             240.00    -3800.00
04155             220.00    -3600.00
04156             220.00    -3400.00
04157             220.00    -3000.00
04158             200.00    -3000.00
04159             180.00    -2800.00
04160             180.00    -2600.00
04161             180.00    -2200.00
04162             160.00    -2200.00
04163             160.00    -2000.00
04164             140.00    -1800.00
04165             160.00    -1600.00
04166             140.00    -1200.00
04167             140.00     -800.00
04168             140.00    -1000.00
04169             100.00     -600.00
04170             140.00     -400.00
04171             100.00     -200.00
04172              80.00      200.00
04173              80.00      200.00
04174             140.00      400.00
04175             160.00      600.00
04176             160.00      800.00
04177             140.00     1000.00
04178             100.00     1000.00
04179             120.00     1400.00
04180             140.00     1600.00
04181             420.00     1800.00
04182             940.00     2200.00
04183             480.00     2200.00
04184            -460.00     2400.00
04185            -700.00     2600.00
04186            -600.00     2800.00
04187            -100.00     3200.00
04188             700.00     3400.00
04189            -180.00     3400.00
04190            -220.00     3600.00
04191             260.00     3600.00
04192            -240.00     4400.00
04193             -20.00     4400.00
04194               0.00     4000.00
04195               0.00     5200.00
04196             140.00     4600.00
04197            -260.00     5000.00
04198             -80.00     5600.00
04199            -160.00     5200.00
04200            -140.00     5800.00
04201               0.00     5800.00
04202            -220.00     6000.00
04203             -80.00     6200.00
04204            -180.00     6200.00
04205            -160.00     6800.00
04206            -160.00     6400.00
04207            -160.00     7000.00
04208            -180.00     7000.00
04209            -240.00     7000.00
04210            -140.00     7400.00
04211            -300.00     7400.00
04212            -260.00     7800.00
04213            -220.00     7800.00
04214            -180.00     8000.00
04215            -300.00     8000.00
04216            -300.00     8200.00
04217            -280.00     8400.00
04218            -340.00     8400.00
04219            -260.00     9000.00
04220            -320.00     8600.00
04221            -380.00     9000.00
04222            -380.00     9200.00
04223            -340.00     9200.00
04224            -380.00     9400.00
04225            -380.00     9400.00
04226            -380.00     9600.00
04227            -460.00     9800.00
04228            -460.00     9800.00
04229            -460.00    10000.00
04230            -480.00    10000.00
04231            -480.00    10200.00
04232            -500.00    10200.00
04233            -560.00    10200.00
04234            -560.00    10600.00
04235            -540.00    10600.00
04236            -560.00    10600.00
04237            -600.00    10600.00
04238            -620.00    10800.00
04239            -660.00    10800.00
04240            -700.00    10600.00
04241            -680.00    10800.00
04242            -740.00    11000.00
04243            -740.00    11000.00
04244            -780.00    11000.00
04245            -800.00    11400.00
04246            -860.00    11200.00
04247            -880.00    11400.00
04248            -900.00    11400.00
04249            -960.00    11400.00
04250            -980.00    11400.00
04251           -1040.00    11400.00
04252           -1100.00    11200.00
04253           -1120.00    11400.00
04254           -1180.00    11400.00
04255           -1240.00    11400.00
04256           -1280.00    11400.00
04257           -1360.00    11200.00
04258           -1420.00    11400.00
04259           -1500.00    11400.00
04260           -1540.00    11200.00
04261           -1620.00    11200.00
04262           -1680.00    11400.00
04263           -1740.00    11200.00
04264           -1780.00    11200.00
04265           -1860.00    11000.00
04266           -1900.00    11000.00
04267           -1940.00    11000.00
04268           -1980.00    11000.00
04269           -1980.00    11000.00
04270           -1980.00    10800.00
04271           -2000.00    10800.00
04272           -1980.00    10800.00
04273           -1940.00    10800.00
04274           -1940.00    10600.00
04275           -1900.00    10600.00
04276           -1840.00    10600.00
04277           -1800.00    10400.00
04278           -1740.00    10200.00
04279           -1680.00    10200.00
04280           -1620.00    10200.00
04281           -1540.00    10200.00
04282           -1500.00    10000.00
04283           -1440.00     9800.00
04284           -1360.00     9800.00
04285           -1300.00     9400.00
04286           -1240.00     9400.00
04287           -1200.00     9400.00
04288           -1120.00     9200.00
04289           -1060.00     9200.00
04290            -980.00     9000.00
04291            -960.00     8800.00
04292            -920.00     8600.00
04293            -900.00     8600.00
04294            -820.00     8400.00
04295            -780.00     8400.00
04296            -740.00     8200.00
04297            -700.00     8000.00
04298            -680.00     7800.00
04299            -660.00     7800.00
04300            -620.00     7400.00
04301            -580.00     7400.00
04302            -560.00     7400.00
04303            -560.00     7000.00
04304            -500.00     7000.00
04305            -500.00     6600.00
04306            -480.00     6600.00
04307            -480.00     6400.00
04308            -440.00     6200.00
04309            -420.00     6000.00
04310            -400.00     6000.00
04311            -380.00     5800.00
04312            -380.00     5600.00
04313            -340.00     5400.00
04314            -340.00     5200.00
04315            -320.00     5000.00
04316            -320.00     4800.00
04317            -300.00     4600.00
04318            -300.00     4400.00
04319            -260.00     4200.00
04320            -280.00     3800.00
04321            -260.00     3800.00
04322            -240.00     3600.00
04323            -240.00     3400.00
04324            -220.00     3200.00
04325            -240.00     2800.00
04326            -240.00     2800.00
04327            -220.00     2600.00
04328            -180.00     2200.00
04329            -160.00     2200.00
04330            -160.00     1800.00
04331            -160.00     1800.00
04332            -140.00     1400.00
04333            -160.00     1200.00
04334            -160.00     1000.00
04335            -140.00     1000.00
04336            -120.00      600.00
04337            -100.00      400.00
04338            -100.00      200.00
04339            -100.00      200.00
04340            -100.00     -200.00
04341             -60.00     -200.00
04342              20.00     -600.00
04343              40.00     -800.00
04344               0.00    -1000.00
04345               0.00    -1200.00
04346              20.00    -1200.00
04347              40.00    -1400.00
04348             100.00    -1800.00
04349             460.00    -1800.00
04350             780.00    -2400.00
04351             220.00    -2600.00
04352            -460.00    -2800.00
04353            -420.00    -2800.00
04354            -380.00    -2800.00
04355            -260.00    -2800.00
04356             420.00    -3400.00
04357              80.00    -3600.00
04358            -100.00    -3400.00
04359             320.00    -4600.00
04360               0.00    -4000.00
04361             160.00    -4200.00
04362             180.00    -4800.00
04363              80.00    -4600.00
04364             340.00    -5000.00
04365             100.00    -5000.00
04366              20.00    -5400.00
04367             140.00    -5400.00
04368             160.00    -5800.00
04369             200.00    -6200.00
04370             160.00    -6000.00
04371             200.00    -6400.00
04372             140.00    -6400.00
04373             240.00    -6600.00
04374             240.00    -7000.00
04375             160.00    -6800.00
04376             300.00    -7200.00
04377             220.00    -7400.00
04378             220.00    -7600.00
04379             260.00    -7600.00
04380             240.00    -7600.00
04381             260.00    -8000.00
04382             320.00    -8200.00
04383             300.00    -8400.00
04384             260.00    -8400.00
04385             320.00    -8600.00
04386             340.00    -8600.00
04387             320.00    -9000.00
04388             360.00    -9000.00
04389             380.00    -9000.00
04390             340.00    -9200.00
04391             380.00    -9200.00
04392             420.00    -9400.00
04393             400.00    -9400.00
04394             420.00    -9600.00
04395             460.00    -9800.00
04396             440.00    -9800.00
04397             480.00   -10000.00
04398             500.00   -10000.00
04399             500.00   -10200.00
04400             500.00   -10200.00
04401             540.00   -10400.00
04402             540.00   -10600.00
04403             580.00   -10600.00
04404             640.00   -10600.00
04405             620.00   -10800.00
04406             640.00   -10800.00
04407             660.00   -10800.00
04408             660.00   -11000.00
04409             720.00   -11000.00
04410             780.00   -11000.00
04411             800.00   -11000.00
04412             820.00   -11200.00
04413             860.00   -11000.00
04414             880.00   -11200.00
04415             900.00   -11000.00
04416             940.00   -11400.00
04417            1000.00   -11400.00
04418            1020.00   -11400.00
04419            1060.00   -11400.00
04420            1120.00   -11200.00
04421            1180.00   -11400.00
04422            1200.00   -11400.00
04423            1280.00   -11400.00
04424            1340.00   -11400.00
04425            1420.00   -11400.00
04426            1460.00   -11400.00
04427            1540.00   -11400.00
04428            1620.00   -11200.00
04429            1660.00   -11200.00
04430            1740.00   -11000.00
04431            1820.00   -11200.00
04432            1840.00   -11000.00
04433            1860.00   -11000.00
04434            1920.00   -11000.00
04435            1940.00   -11000.00
04436            1980.00   -11000.00
04437            1980.00   -10800.00
04438            2000.00   -10800.00
04439            1980.00   -10800.00
04440            1960.00   -10600.00
04441            1920.00   -10600.00
04442            1900.00   -10600.00
04443            1840.00   -10600.00
04444            1820.00   -10600.00
04445            1760.00   -10200.00
04446            1680.00   -10200.00
04447            1660.00   -10200.00
04448            1580.00   -10000.00
04449            1500.00    -9800.00
04450            1440.00    -9800.00
04451            1380.00    -9800.00
04452            1300.00    -9600.00
04453            1260.00    -9400.00
04454            1180.00    -9400.00
04455            1120.00    -9200.00
04456            1060.00    -9200.00
04457            1040.00    -9000.00
04458             960.00    -9000.00
04459             940.00    -8800.00
04460             860.00    -8600.00
04461             820.00    -8600.00
04462             780.00    -8400.00
04463             740.00    -8200.00
04464             720.00    -8000.00
04465             660.00    -8000.00
04466             640.00    -7800.00
04467             620.00    -7600.00
04468             580.00    -7600.00
04469             560.00    -7200.00
04470             540.00    -7000.00
04471             500.00    -7000.00
04472             480.00    -6800.00
04473             460.00    -6600.00
04474             460.00    -6600.00
04475             400.00    -6200.00
04476             400.00    -6000.00
04477             380.00    -6000.00
04478             380.00    -5800.00
04479             340.00    -5600.00
04480             340.00    -5400.00
04481             320.00    -5200.00
04482             320.00    -5000.00
04483             320.00    -4800.00
04484             300.00    -4600.00
04485             280.00    -4600.00
04486             260.00    -4400.00
04487             240.00    -4000.00
04488             240.00    -3800.00
04489             240.00    -3600.00
04490             220.00    -3400.00
04491             220.00    -3200.00
04492             220.00    -3000.00
04493             220.00    -2800.00
04494             180.00    -2600.00
04495             180.00    -2200.00
04496             160.00    -2200.00
04497             160.00    -2200.00
04498             160.00    -1800.00
04499             160.00    -1800.00
04500             140.00    -1400.00
04501             140.00    -1200.00
04502             140.00     -800.00
04503             140.00     -600.00
04504             140.00     -400.00
04505             100.00     -400.00
04506             100.00     -200.00
04507              80.00      200.00
04508             100.00      400.00
04509             160.00      400.00
04510             180.00      600.00
04511             160.00      800.00
04512             120.00     1000.00
04513             140.00     1200.00
04514             140.00     1400.00
04515             240.00     1800.00
04516             780.00     2000.00
04517             800.00     2200.00
04518            -100.00     2400.00
04519            -700.00     2600.00
04520            -620.00     2600.00
04521            -460.00     3200.00
04522             500.00     3400.00
04523             300.00     3000.00
04524            -420.00     3800.00
04525             220.00     3600.00
04526             -20.00     3800.00
04527            -240.00     4600.00
04528              80.00     3800.00
04529             -80.00     4600.00
04530             160.00     5000.00
04531            -140.00     4400.00
04532            -200.00     5800.00
04533             -60.00     5200.00
04534            -220.00     5600.00
04535               0.00     6000.00
04536            -160.00     5800.00
04537            -160.00     6200.00
04538            -100.00     6000.00
04539            -180.00     6600.00
04540            -100.00     6600.00
04541            -180.00     6800.00
04542            -140.00     7400.00
04543            -260.00     6800.00
04544            -160.00     7400.00
04545            -220.00     7400.00
04546            -320.00     7600.00
04547            -220.00     7800.00
04548            -200.00     7800.00
04549            -240.00     8200.00
04550            -300.00     8200.00
04551            -260.00     8600.00
04552            -340.00     8400.00
04553            -320.00     8600.00
04554            -300.00     8800.00
04555            -340.00     9000.00
04556            -380.00     9000.00
04557            -360.00     9400.00
04558            -380.00     9400.00
04559            -380.00     9400.00
04560            -340.00     9600.00
04561            -440.00     9800.00
04562            -460.00     9800.00
04563            -460.00    10000.00
04564            -460.00    10000.00
04565            -480.00    10000.00
04566            -500.00    10400.00
04567            -540.00    10200.00
04568            -560.00    10200.00
04569            -520.00    10400.00
04570            -540.00    10600.00
04571            -580.00    10600.00
04572            -620.00    10600.00
04573            -640.00    10800.00
04574            -680.00    10800.00
04575            -700.00    10800.00
04576            -700.00    11000.00
04577            -740.00    11000.00
04578            -740.00    11000.00
04579            -780.00    11000.00
04580            -860.00    11200.00
04581            -880.00    11400.00
04582            -900.00    11200.00
04583            -940.00    11200.00
04584            -960.00    11000.00
04585           -1020.00    11400.00
04586           -1060.00    11400.00
04587           -1120.00    11200.00
04588           -1140.00    11400.00
04589           -1200.00    11400.00
04590           -1280.00    11400.00
04591           -1300.00    11400.00
04592           -1380.00    11400.00
04593           -1440.00    11400.00
04594           -1520.00    11200.00
04595           -1600.00    11200.00
04596           -1680.00    11200.00
04597           -1720.00    11400.00
04598           -1760.00    11400.00
04599           -1840.00    11000.00
04600           -1900.00    11200.00
04601           -1920.00    11000.00
04602           -1940.00    11000.00
04603           -1980.00    11000.00
04604           -1980.00    11000.00
04605           -1980.00    10800.00
04606           -1940.00    10600.00
04607           -1980.00    10800.00
04608           -1940.00    10800.00
04609           -1900.00    10600.00
04610           -1860.00    10600.00
04611           -1780.00    10400.00
04612           -1760.00    10600.00
04613           -1700.00    10200.00
04614           -1660.00    10200.00
04615           -1600.00    10000.00
04616           -1520.00     9800.00
04617           -1440.00    10000.00
04618           -1380.00     9800.00
04619           -1340.00     9800.00
04620           -1280.00     9600.00
04621           -1220.00     9400.00
04622           -1160.00     9400.00
04623           -1100.00     9200.00
04624           -1040.00     9000.00
04625            -980.00     9000.00
04626            -940.00     8800.00
04627            -880.00     8600.00
04628            -860.00     8600.00
04629            -800.00     8400.00
04630            -760.00     8200.00
04631            -720.00     8200.00
04632            -700.00     8000.00
04633            -660.00     7800.00
04634            -640.00     7800.00
04635            -580.00     7400.00
04636            -560.00     7400.00
04637            -560.00     7200.00
04638            -500.00     7000.00
04639            -480.00     6800.00
04640            -480.00     6600.00
04641            -460.00     6600.00
04642            -460.00     6200.00
04643            -420.00     6200.00
04644            -400.00     6000.00
04645            -380.00     5800.00
04646            -400.00     5600.00
04647            -360.00     5400.00
04648            -340.00     5200.00
04649            -340.00     5000.00
04650            -320.00     5000.00
04651            -300.00     4600.00
04652            -300.00     4400.00
04653            -300.00     4200.00
04654            -260.00     4000.00
04655            -260.00     3800.00
04656            -260.00     3600.00
04657            -240.00     3400.00
04658            -240.00     3400.00
04659            -220.00     3000.00
04660            -240.00     2800.00
04661            -220.00     2600.00
04662            -180.00     2200.00
04663            -180.00     2200.00
04664            -180.00     2000.00
04665            -160.00     1800.00
04666            -160.00     1400.00
04667            -140.00     1600.00
04668            -160.00     1200.00
04669            -140.00     1000.00
04670            -140.00     1000.00
04671            -100.00      600.00
04672            -100.00      400.00
04673            -100.00      200.00
04674            -100.00     -200.00
04675             -80.00     -400.00
04676               0.00     -600.00
04677              60.00     -600.00
04678              20.00     -800.00
04679               0.00    -1200.00
04680               0.00    -1200.00
04681               0.00    -1400.00
04682              60.00    -1400.00
04683             260.00    -1800.00
04684             720.00    -2200.00
04685             520.00    -2600.00
04686            -240.00    -2600.00
04687            -500.00    -3000.00
04688            -340.00    -3000.00
04689            -380.00    -2800.00
04690             160.00    -3200.00
04691             380.00    -3800.00
04692            -180.00    -3400.00
04693             180.00    -4200.00
04694             180.00    -4400.00
04695               0.00    -3800.00
04696             240.00    -4800.00
04697              60.00    -4600.00
04698             240.00    -5000.00
04699             240.00    -5200.00
04700               0.00    -5200.00
04701             100.00    -5600.00
04702             140.00    -5400.00
04703             180.00    -6000.00
04704             160.00    -6000.00
04705             220.00    -6000.00
04706             160.00    -6600.00
04707             160.00    -6200.00
04708             300.00    -6800.00
04709             180.00    -6800.00
04710             220.00    -7000.00
04711             260.00    -7200.00
04712             220.00    -7400.00
04713             260.00    -7600.00
04714             260.00    -7600.00
04715             240.00    -8000.00
04716             300.00    -8000.00
04717             340.00    -8200.00
04718             260.00    -8400.00
04719             320.00    -8600.00
04720             380.00    -8600.00
04721             340.00    -8600.00
04722             320.00    -9000.00
04723             380.00    -9000.00
04724             340.00    -9000.00
04725             380.00    -9400.00
04726             400.00    -9200.00
04727             400.00    -9600.00
04728             400.00    -9800.00
04729             440.00    -9800.00
04730             420.00    -9800.00
04731             460.00   -10000.00
04732             500.00    -9800.00
04733             500.00   -10200.00
04734             500.00   -10400.00
04735             540.00   -10200.00
04736             540.00   -10600.00
04737             560.00   -10600.00
04738             620.00   -10600.00
04739             640.00   -10800.00
04740             640.00   -10800.00
04741             640.00   -11000.00
04742             660.00   -11000.00
04743             700.00   -10800.00
04744             740.00   -10800.00
04745             780.00   -11000.00
04746             800.00   -11000.00
04747             820.00   -11000.00
04748             860.00   -11000.00
04749             880.00   -11400.00
04750             940.00   -11400.00
04751             960.00   -11400.00
04752            1020.00   -11400.00
04753            1060.00   -11400.00
04754            1100.00   -11400.00
04755            1140.00   -11400.00
04756            1200.00   -11400.00
04757            1260.00   -11200.00
04758            1320.00   -11400.00
04759            1380.00   -11400.00
04760            1460.00   -11400.00
04761            1520.00   -11400.00
04762            1580.00   -11200.00
04763            1660.00   -11400.00
04764            1720.00   -11400.00
04765            1780.00   -11200.00
04766            1840.00   -11200.00
04767            1900.00   -11000.00
04768            1920.00   -11000.00
04769            1940.00   -11000.00
04770            1960.00   -11000.00
04771            2000.00   -11000.00
04772            1980.00   -11000.00
04773            1980.00   -10800.00
04774            1980.00   -10800.00
04775            1920.00   -10600.00
04776            1900.00   -10600.00
04777            1860.00   -10600.00
04778            1820.00   -10600.00
04779            1780.00   -10200.00
04780            1700.00   -10200.00
04781            1660.00   -10200.00
04782            1580.00   -10000.00
04783            1520.00   -10000.00
04784            1460.00    -9800.00
04785            1420.00    -9800.00
04786            1340.00    -9600.00
04787            1280.00    -9600.00
04788            1220.00    -9400.00
04789            1120.00    -9400.00
04790            1100.00    -9200.00
04791            1040.00    -9000.00
04792             980.00    -9000.00
04793             940.00    -9000.00
04794             880.00    -8600.00
04795             820.00    -8600.00
04796             800.00    -8400.00
04797             780.00    -8400.00
04798             720.00    -8200.00
04799             700.00    -8000.00
04800             660.00    -7800.00
04801             620.00    -7800.00
04802             620.00    -7600.00
04803             560.00    -7400.00
04804             540.00    -7200.00
04805             540.00    -7000.00
04806             500.00    -6800.00
04807             480.00    -6600.00
04808             460.00    -6600.00
04809             420.00    -6200.00
04810             400.00    -6200.00
04811             400.00    -6000.00
04812             380.00    -6000.00
04813             380.00    -5600.00
04814             340.00    -5400.00
04815             320.00    -5400.00
04816             320.00    -5200.00
04817             300.00    -5000.00
04818             320.00    -4600.00
04819             300.00    -4400.00
04820             300.00    -4400.00
04821             260.00    -4200.00
04822             240.00    -3800.00
04823             240.00    -3600.00
04824             220.00    -3600.00
04825             220.00    -3200.00
04826             220.00    -3200.00
04827             220.00    -3000.00
04828             180.00    -2800.00
04829             180.00    -2400.00
04830             160.00    -2200.00
04831             180.00    -2000.00
04832             160.00    -1800.00
04833             160.00    -1600.00
04834             140.00    -1400.00
04835             140.00    -1000.00
04836             140.00    -1000.00
04837             120.00     -600.00
04838             140.00     -600.00
04839             100.00     -400.00
04840             100.00     -200.00
04841             100.00      200.00
04842             100.00      200.00
04843             140.00      400.00
04844             180.00      600.00
04845             160.00      800.00
04846             120.00     1000.00
04847             100.00     1200.00
04848             120.00     1400.00
04849             160.00     1600.00
04850             500.00     2000.00
04851             940.00     2200.00
04852             320.00     2400.00
04853            -560.00     2400.00
04854            -660.00     2600.00
04855            -600.00     2800.00
04856              60.00     3400.00
04857             640.00     3400.00
04858            -320.00     3400.00
04859            -100.00     3800.00
04860             220.00     3600.00
04861            -300.00     4400.00
04862              20.00     4200.00
04863             -40.00     4200.00
04864              20.00     5200.00
04865              80.00     4200.00
04866            -260.00     5200.00
04867             -60.00     5600.00
04868            -180.00     5200.00
04869            -100.00     6000.00
04870             -20.00     5600.00
04871            -220.00     6200.00
04872             -80.00     6200.00
04873            -200.00     6200.00
04874            -140.00     6800.00
04875            -180.00     6400.00
04876            -160.00     7200.00
04877            -200.00     6800.00
04878            -240.00     7200.00
04879            -160.00     7400.00
04880            -300.00     7400.00
04881            -260.00     7800.00
04882            -220.00     7800.00
04883            -180.00     8200.00
04884            -300.00     8200.00
04885            -260.00     8400.00
04886            -260.00     8600.00
04887            -320.00     8400.00
04888            -260.00     8800.00
04889            -320.00     8600.00
04890            -340.00     9000.00
04891            -380.00     9200.00
04892            -340.00     9200.00
04893            -400.00     9400.00
04894            -340.00     9400.00
04895            -420.00     9800.00
04896            -460.00     9800.00
04897            -420.00    10000.00
04898            -420.00    10000.00
04899            -480.00    10000.00
04900            -480.00    10200.00
04901            -500.00    10200.00
04902            -560.00    10200.00
04903            -540.00    10400.00
04904            -540.00    10600.00
04905            -580.00    10600.00
04906            -600.00    10600.00
04907            -620.00    10800.00
04908            -660.00    10800.00
04909            -700.00    10800.00
04910            -700.00    10800.00
04911            -740.00    11000.00
04912            -740.00    11000.00
04913            -780.00    11000.00
04914            -820.00    11000.00
04915            -860.00    11000.00
04916            -880.00    11000.00
04917            -900.00    11200.00
04918            -960.00    11400.00
04919            -980.00    11400.00
04920           -1060.00    11400.00
04921           -1100.00    11200.00
04922           -1140.00    11400.00
04923           -1200.00    11400.00
04924           -1260.00    11400.00
04925           -1300.00    11400.00
04926           -1360.00    11400.00
04927           -1440.00    11400.00
04928           -1500.00    11200.00
04929           -1580.00    11200.00
04930           -1660.00    11400.00
04931           -1700.00    11200.00
04932           -1760.00    11400.00
04933           -1820.00    11200.00
04934           -1860.00    11000.00
04935           -1900.00    11200.00
04936           -1940.00    11000.00
04937           -1960.00    11000.00
04938           -1980.00    11000.00
04939           -2000.00    10800.00
04940           -1980.00    10800.00
04941           -1980.00    10800.00
04942           -1960.00    10600.00
04943           -1920.00    10600.00
04944           -1880.00    10600.00
04945           -1840.00    10400.00
04946           -1780.00    10200.00
04947           -1740.00    10200.00
04948           -1660.00    10200.00
04949           -1620.00    10200.00
04950           -1540.00    10000.00
04951           -1460.00     9800.00
04952           -1420.00     9800.00
04953           -1360.00     9800.00
04954           -1300.00     9600.00
04955           -1220.00     9600.00
04956           -1180.00     9200.00
04957           -1120.00     9400.00
04958           -1060.00     9200.00
04959            -980.00     9200.00
04960            -960.00     8800.00
04961            -920.00     8600.00
04962            -860.00     8600.00
04963            -820.00     8400.00
04964            -780.00     8200.00
04965            -740.00     8200.00
04966            -700.00     8000.00
04967            -680.00     8000.00
04968            -640.00     7800.00
04969            -620.00     7600.00
04970            -580.00     7400.00
04971            -560.00     7000.00
04972            -540.00     7000.00
04973            -500.00     7000.00
04974            -480.00     6800.00
04975            -480.00     6600.00
04976            -460.00     6400.00
04977            -420.00     6200.00
04978            -420.00     6000.00
04979            -400.00     5800.00
04980            -380.00     5800.00
04981            -380.00     5400.00
04982            -340.00     5400.00
04983            -340.00     5200.00
04984            -320.00     4800.00
04985            -320.00     4600.00
04986            -300.00     4400.00
04987            -300.00     4200.00
04988            -260.00     4200.00
04989            -280.00     4000.00
04990            -260.00     3600.00
04991            -260.00     3600.00
04992            -240.00     3400.00
04993            -240.00     3000.00
04994            -220.00     2800.00
04995            -240.00     2800.00
04996            -220.00     2400.00
04997            -180.00     2200.00
04998            -180.00     2000.00
04999            -160.00     2000.00
05000            -160.00     1600.00
