Unit:(mV)
                     CH1         CH2
Frequency              ? 261.573 kHz
00001              -8.00    -6600.00
00002              -6.00    -6200.00
00003              -6.00    -6200.00
00004              -2.00    -6000.00
00005              -6.00    -6000.00
00006              -2.00    -5800.00
00007              -8.00    -5400.00
00008              -2.00    -5200.00
00009              -2.00    -5200.00
00010              -2.00    -5000.00
00011              -4.00    -4600.00
00012              -2.00    -4600.00
00013              -2.00    -4600.00
00014              -6.00    -4400.00
00015              -6.00    -4000.00
00016              -8.00    -3800.00
00017              -2.00    -3800.00
00018              -2.00    -3600.00
00019              -2.00    -3400.00
00020              -2.00    -3000.00
00021              -2.00    -3000.00
00022              -4.00    -2800.00
00023              -2.00    -2800.00
00024              -2.00    -2600.00
00025              -2.00    -2200.00
00026              -2.00    -2000.00
00027              -2.00    -1800.00
00028              -4.00    -1800.00
00029              -2.00    -1400.00
00030              -2.00    -1400.00
00031              -2.00    -1400.00
00032              -2.00    -1000.00
00033              -2.00     -800.00
00034              -2.00     -600.00
00035              -2.00     -400.00
00036              -2.00     -200.00
00037              -2.00        0.00
00038               0.00      200.00
00039               0.00      400.00
00040              10.00      600.00
00041              22.00      600.00
00042               2.00     1000.00
00043              -6.00     1000.00
00044               0.00     1400.00
00045              10.00     1400.00
00046               6.00     1600.00
00047              38.00     1800.00
00048             178.00     2400.00
00049             114.00     2400.00
00050            -254.00     2400.00
00051            -238.00     2600.00
00052              56.00     2800.00
00053             -22.00     2800.00
00054              70.00     3400.00
00055             228.00     3600.00
00056            -254.00     3200.00
00057              48.00     3800.00
00058             216.00     3800.00
00059            -186.00     3600.00
00060              62.00     4600.00
00061             -60.00     4200.00
00062              16.00     4200.00
00063             174.00     5200.00
00064            -236.00     4400.00
00065              56.00     5200.00
00066              86.00     5600.00
00067            -102.00     5000.00
00068              54.00     5800.00
00069             -32.00     6000.00
00070              30.00     5800.00
00071              10.00     6400.00
00072             -26.00     6200.00
00073             -12.00     6200.00
00074               6.00     6800.00
00075              12.00     6600.00
00076             -26.00     6800.00
00077              48.00     7400.00
00078             -54.00     7000.00
00079               6.00     7400.00
00080              38.00     7800.00
00081             -38.00     7600.00
00082              24.00     7800.00
00083             -14.00     8200.00
00084              -2.00     8200.00
00085              14.00     8600.00
00086             -10.00     8600.00
00087             -16.00     8400.00
00088              26.00     9000.00
00089             -10.00     8800.00
00090              -4.00     9000.00
00091              16.00     9200.00
00092             -18.00     9200.00
00093               2.00     9400.00
00094               0.00     9400.00
00095              -2.00     9400.00
00096               2.00     9800.00
00097               6.00     9800.00
00098             -14.00     9800.00
00099               2.00    10000.00
00100              -2.00    10200.00
00101               0.00    10200.00
00102              16.00    10200.00
00103              -6.00    10200.00
00104              -6.00    10600.00
00105               2.00    10600.00
00106              -6.00    10800.00
00107              -2.00    10800.00
00108               8.00    10800.00
00109               0.00    11000.00
00110               2.00    11000.00
00111              -2.00    11000.00
00112              -8.00    11000.00
00113               0.00    11200.00
00114              -2.00    11400.00
00115              -2.00    11400.00
00116               4.00    11400.00
00117              -2.00    11400.00
00118              -6.00    11400.00
00119               0.00    11600.00
00120              -4.00    11600.00
00121              -2.00    11600.00
00122               2.00    11600.00
00123               0.00    11600.00
00124               0.00    11600.00
00125              -2.00    11800.00
00126              -6.00    11800.00
00127               0.00    11600.00
00128               0.00    11800.00
00129              -2.00    11800.00
00130               0.00    11800.00
00131              -2.00    11800.00
00132              -6.00    11800.00
00133              -2.00    11800.00
00134               0.00    11800.00
00135               0.00    11800.00
00136               0.00    11800.00
00137              -2.00    11800.00
00138              -2.00    11800.00
00139               0.00    11600.00
00140              -2.00    11800.00
00141               0.00    11800.00
00142               2.00    11600.00
00143               0.00    11800.00
00144               2.00    11800.00
00145              -4.00    11600.00
00146              -6.00    11600.00
00147               0.00    11600.00
00148              -2.00    11400.00
00149               0.00    11400.00
00150               2.00    11600.00
00151              -2.00    11400.00
00152              -2.00    11400.00
00153               2.00    11400.00
00154               0.00    11000.00
00155              -2.00    11400.00
00156               0.00    11000.00
00157               2.00    11000.00
00158               0.00    11000.00
00159               0.00    10800.00
00160              -2.00    10800.00
00161               0.00    10800.00
00162               2.00    10600.00
00163               0.00    10400.00
00164              -2.00    10400.00
00165               0.00    10200.00
00166               0.00    10200.00
00167              -2.00    10000.00
00168               0.00    10000.00
00169              -2.00     9800.00
00170               0.00     9800.00
00171              -2.00     9800.00
00172              -2.00     9600.00
00173               0.00     9400.00
00174               0.00     9400.00
00175               0.00     9200.00
00176               0.00     9000.00
00177               0.00     9000.00
00178              -2.00     8800.00
00179              -2.00     8800.00
00180              -2.00     8400.00
00181              -2.00     8400.00
00182               0.00     8200.00
00183              -2.00     8000.00
00184               0.00     7800.00
00185              -2.00     7800.00
00186              -6.00     7600.00
00187              -2.00     7600.00
00188              -2.00     7400.00
00189              -2.00     7400.00
00190               0.00     7000.00
00191              -2.00     7000.00
00192              -2.00     6800.00
00193              -6.00     6600.00
00194              -2.00     6600.00
00195              -2.00     6400.00
00196              -2.00     6200.00
00197              -2.00     6000.00
00198              -2.00     5800.00
00199              -6.00     5800.00
00200              -2.00     5400.00
00201               0.00     5200.00
00202               0.00     5000.00
00203               0.00     5000.00
00204              -6.00     4600.00
00205              -6.00     4600.00
00206              -6.00     4400.00
00207              -6.00     4200.00
00208               0.00     4000.00
00209               0.00     3800.00
00210              -4.00     3800.00
00211               0.00     3400.00
00212             -10.00     3400.00
00213              -4.00     3000.00
00214              -6.00     2800.00
00215              -2.00     2800.00
00216              -2.00     2600.00
00217               0.00     2400.00
00218              -8.00     2200.00
00219              -6.00     2200.00
00220              -2.00     1800.00
00221              -2.00     1600.00
00222               2.00     1400.00
00223              -2.00     1400.00
00224              -4.00     1000.00
00225              -6.00     1000.00
00226              -6.00      800.00
00227              -2.00      600.00
00228               2.00      400.00
00229               0.00      200.00
00230               2.00        0.00
00231               6.00     -200.00
00232              18.00     -400.00
00233               4.00     -400.00
00234              -6.00     -800.00
00235               0.00    -1000.00
00236               8.00    -1200.00
00237               2.00    -1200.00
00238               4.00    -1400.00
00239              54.00    -1400.00
00240             168.00    -1800.00
00241              40.00    -2200.00
00242            -246.00    -2600.00
00243            -162.00    -2600.00
00244              96.00    -2600.00
00245              -2.00    -2800.00
00246            -144.00    -2800.00
00247             196.00    -3000.00
00248              70.00    -3400.00
00249            -162.00    -3200.00
00250              96.00    -3800.00
00251              -6.00    -4000.00
00252               0.00    -3800.00
00253             -16.00    -4200.00
00254             -48.00    -4400.00
00255             106.00    -4400.00
00256             -80.00    -4800.00
00257             -30.00    -5200.00
00258              46.00    -4800.00
00259             -46.00    -5400.00
00260              26.00    -5400.00
00261             -14.00    -5400.00
00262               6.00    -6000.00
00263               0.00    -5800.00
00264             -14.00    -6000.00
00265              -8.00    -6600.00
00266              -6.00    -6400.00
00267               8.00    -6600.00
00268             -24.00    -6800.00
00269              18.00    -6800.00
00270              -8.00    -7000.00
00271             -26.00    -7400.00
00272              16.00    -7400.00
00273             -14.00    -7600.00
00274               6.00    -7800.00
00275               2.00    -7800.00
00276             -16.00    -8200.00
00277               2.00    -8400.00
00278              -6.00    -8200.00
00279             -14.00    -8400.00
00280               4.00    -8400.00
00281               0.00    -8600.00
00282             -14.00    -8800.00
00283               6.00    -9000.00
00284              -6.00    -9000.00
00285             -10.00    -9200.00
00286               2.00    -9200.00
00287              -2.00    -9400.00
00288              -2.00    -9200.00
00289              -2.00    -9400.00
00290              -8.00    -9800.00
00291              -6.00    -9800.00
00292              -2.00    -9800.00
00293              -8.00    -9800.00
00294               2.00   -10000.00
00295              -2.00   -10200.00
00296              -8.00   -10200.00
00297               0.00   -10200.00
00298              -6.00   -10400.00
00299              -8.00   -10600.00
00300              -2.00   -10400.00
00301              -2.00   -10600.00
00302              -6.00   -10800.00
00303              -4.00   -10800.00
00304              -8.00   -11000.00
00305              -6.00   -11000.00
00306              -2.00   -11000.00
00307              -8.00   -11000.00
00308              -2.00   -11200.00
00309              -2.00   -11200.00
00310             -10.00   -11400.00
00311              -8.00   -11400.00
00312              -8.00   -11400.00
00313              -6.00   -11400.00
00314              -6.00   -11400.00
00315              -6.00   -11400.00
00316              -6.00   -11600.00
00317              -6.00   -11400.00
00318              -8.00   -11400.00
00319              -6.00   -11400.00
00320              -2.00   -11600.00
00321              -6.00   -11600.00
00322              -6.00   -11600.00
00323              -6.00   -11400.00
00324             -10.00   -11600.00
00325              -6.00   -11600.00
00326              -6.00   -11400.00
00327              -2.00   -11600.00
00328              -6.00   -11600.00
00329              -6.00   -11400.00
00330              -6.00   -11600.00
00331              -8.00   -11600.00
00332              -8.00   -11400.00
00333              -4.00   -11400.00
00334              -2.00   -11400.00
00335              -2.00   -11400.00
00336              -6.00   -11400.00
00337              -8.00   -11400.00
00338              -8.00   -11400.00
00339              -2.00   -11000.00
00340              -4.00   -11000.00
00341              -2.00   -11000.00
00342              -6.00   -11000.00
00343              -4.00   -11000.00
00344              -8.00   -11000.00
00345              -8.00   -11000.00
00346              -4.00   -10800.00
00347              -2.00   -10800.00
00348              -2.00   -10600.00
00349              -6.00   -10400.00
00350              -8.00   -10400.00
00351              -6.00   -10400.00
00352              -6.00   -10200.00
00353              -6.00   -10200.00
00354               0.00   -10200.00
00355              -4.00   -10200.00
00356              -4.00   -10000.00
00357              -6.00    -9800.00
00358              -6.00    -9800.00
00359              -6.00    -9800.00
00360              -2.00    -9600.00
00361              -2.00    -9400.00
00362              -2.00    -9200.00
00363              -6.00    -9200.00
00364              -4.00    -9200.00
00365              -2.00    -9000.00
00366              -6.00    -9000.00
00367              -4.00    -8800.00
00368              -2.00    -8600.00
00369              -6.00    -8600.00
00370              -6.00    -8400.00
00371              -8.00    -8200.00
00372              -6.00    -8200.00
00373              -6.00    -8000.00
00374              -2.00    -7800.00
00375              -2.00    -7800.00
00376              -6.00    -7600.00
00377              -8.00    -7600.00
00378              -6.00    -7400.00
00379              -6.00    -7000.00
00380              -2.00    -7000.00
00381              -6.00    -6800.00
00382              -4.00    -6800.00
00383              -6.00    -6600.00
00384              -8.00    -6600.00
00385              -6.00    -6200.00
00386              -2.00    -6000.00
00387              -6.00    -6000.00
00388              -2.00    -5800.00
00389              -6.00    -5600.00
00390              -6.00    -5400.00
00391              -6.00    -5200.00
00392              -6.00    -5200.00
00393              -2.00    -5000.00
00394              -4.00    -4600.00
00395              -2.00    -4400.00
00396              -6.00    -4400.00
00397              -6.00    -4200.00
00398              -6.00    -4000.00
00399              -2.00    -3800.00
00400              -2.00    -3600.00
00401              -2.00    -3400.00
00402              -4.00    -3200.00
00403              -2.00    -3000.00
00404              -6.00    -2800.00
00405              -4.00    -2800.00
00406              -6.00    -2600.00
00407              -2.00    -2200.00
00408              -4.00    -2200.00
00409              -6.00    -2000.00
00410              -4.00    -1800.00
00411              -4.00    -1600.00
00412              -2.00    -1400.00
00413              -2.00    -1400.00
00414              -2.00    -1200.00
00415              -2.00    -1000.00
00416              -2.00     -600.00
00417              -2.00     -400.00
00418              -2.00     -400.00
00419              -2.00     -200.00
00420               0.00      200.00
00421               0.00      400.00
00422               2.00      400.00
00423              22.00      600.00
00424               8.00      600.00
00425              -6.00     1200.00
00426              -2.00     1200.00
00427               8.00     1400.00
00428               6.00     1400.00
00429              18.00     1800.00
00430             128.00     2000.00
00431             194.00     2400.00
00432            -168.00     2400.00
00433            -254.00     2600.00
00434             -22.00     2800.00
00435              50.00     2800.00
00436             -32.00     3000.00
00437             246.00     3400.00
00438            -160.00     3200.00
00439            -144.00     3600.00
00440             246.00     4000.00
00441            -118.00     3600.00
00442             -32.00     4400.00
00443              32.00     4400.00
00444             -90.00     4200.00
00445             216.00     5200.00
00446            -146.00     4600.00
00447             -82.00     4600.00
00448             162.00     5600.00
00449            -104.00     5000.00
00450              26.00     5400.00
00451               0.00     6000.00
00452              -6.00     5400.00
00453              38.00     6200.00
00454             -34.00     6400.00
00455              -8.00     6200.00
00456             -10.00     6800.00
00457              28.00     6800.00
00458             -32.00     6600.00
00459              38.00     7200.00
00460             -22.00     7200.00
00461             -38.00     7400.00
00462              56.00     7800.00
00463             -34.00     7400.00
00464              14.00     7600.00
00465               2.00     8200.00
00466             -16.00     8200.00
00467              14.00     8400.00
00468              -2.00     8600.00
00469             -22.00     8400.00
00470              18.00     8800.00
00471               6.00     9000.00
00472             -16.00     9000.00
00473              20.00     9200.00
00474             -14.00     9200.00
00475              -6.00     9400.00
00476               6.00     9400.00
00477              -2.00     9600.00
00478               0.00     9800.00
00479              10.00     9800.00
00480              -6.00     9800.00
00481              -2.00    10000.00
00482               0.00    10200.00
00483              -8.00    10000.00
00484              16.00    10200.00
00485               0.00    10400.00
00486             -10.00    10600.00
00487               2.00    10600.00
00488              -2.00    10800.00
00489              -6.00    10600.00
00490               6.00    10600.00
00491              -2.00    10800.00
00492               4.00    11000.00
00493               2.00    11000.00
00494              -4.00    11200.00
00495              -2.00    11000.00
00496               0.00    11200.00
00497               0.00    11200.00
00498               4.00    11400.00
00499               2.00    11400.00
00500              -2.00    11400.00
00501               0.00    11600.00
00502               0.00    11600.00
00503              -2.00    11600.00
00504               2.00    11600.00
00505               0.00    11600.00
00506               2.00    11600.00
00507               0.00    11800.00
00508              -2.00    11800.00
00509              -2.00    11600.00
00510               0.00    11800.00
00511               0.00    11800.00
00512               2.00    11800.00
00513               0.00    11800.00
00514              -2.00    11800.00
00515               0.00    11800.00
00516              -2.00    11800.00
00517               0.00    11800.00
00518               0.00    11800.00
00519              -2.00    11600.00
00520               0.00    11800.00
00521              -2.00    11800.00
00522              -2.00    11800.00
00523               0.00    11600.00
00524               0.00    11800.00
00525               0.00    11600.00
00526               0.00    11600.00
00527               0.00    11600.00
00528              -4.00    11400.00
00529              -2.00    11400.00
00530               0.00    11600.00
00531               0.00    11400.00
00532               2.00    11400.00
00533               0.00    11400.00
00534              -2.00    11400.00
00535              -2.00    11400.00
00536              -2.00    11200.00
00537               0.00    11000.00
00538               2.00    11000.00
00539               0.00    11000.00
00540               0.00    10800.00
00541              -2.00    10800.00
00542              -2.00    10800.00
00543               0.00    10600.00
00544               2.00    10600.00
00545               2.00    10600.00
00546               0.00    10400.00
00547               0.00    10400.00
00548              -2.00    10200.00
00549               0.00    10200.00
00550              -2.00    10000.00
00551               0.00     9800.00
00552               0.00    10000.00
00553               0.00     9800.00
00554               0.00     9600.00
00555              -2.00     9400.00
00556              -2.00     9400.00
00557               0.00     9200.00
00558               0.00     9200.00
00559               0.00     9000.00
00560              -2.00     9000.00
00561               0.00     8600.00
00562               0.00     8600.00
00563              -2.00     8400.00
00564               0.00     8400.00
00565               0.00     8200.00
00566               0.00     8200.00
00567              -2.00     7800.00
00568              -2.00     7800.00
00569              -4.00     7600.00
00570              -2.00     7400.00
00571               0.00     7400.00
00572              -2.00     7200.00
00573              -4.00     7000.00
00574               0.00     6800.00
00575              -6.00     6600.00
00576              -2.00     6600.00
00577              -2.00     6600.00
00578               0.00     6200.00
00579              -2.00     6000.00
00580              -2.00     5800.00
00581              -4.00     5800.00
00582              -2.00     5400.00
00583              -2.00     5200.00
00584              -2.00     5200.00
00585              -2.00     5000.00
00586              -4.00     4800.00
00587              -2.00     4600.00
00588              -6.00     4400.00
00589              -4.00     4200.00
00590              -2.00     4000.00
00591              -2.00     3800.00
00592              -2.00     3800.00
00593              -2.00     3600.00
00594              -6.00     3400.00
00595              -2.00     3400.00
00596              -4.00     3000.00
00597              -2.00     2800.00
00598              -2.00     2800.00
00599              -2.00     2600.00
00600              -2.00     2200.00
00601              -6.00     2000.00
00602              -2.00     2000.00
00603              -6.00     1600.00
00604              -2.00     1400.00
00605              -2.00     1400.00
00606              -2.00     1200.00
00607              -4.00      800.00
00608              -6.00     1000.00
00609              -6.00      600.00
00610              -2.00      400.00
00611               0.00      200.00
00612               0.00      200.00
00613               6.00     -200.00
00614              16.00     -400.00
00615              10.00     -400.00
00616              -8.00     -800.00
00617              -6.00     -600.00
00618               6.00    -1000.00
00619               6.00    -1200.00
00620              -2.00    -1400.00
00621              32.00    -1400.00
00622             134.00    -1800.00
00623             126.00    -2200.00
00624            -186.00    -2400.00
00625            -226.00    -2600.00
00626              34.00    -2800.00
00627              74.00    -2800.00
00628            -152.00    -2800.00
00629              78.00    -2800.00
00630             200.00    -3600.00
00631            -178.00    -3400.00
00632              42.00    -3600.00
00633              48.00    -4000.00
00634             -28.00    -3800.00
00635              22.00    -4200.00
00636             -82.00    -4400.00
00637              92.00    -4400.00
00638             -16.00    -4600.00
00639             -80.00    -5200.00
00640              54.00    -5000.00
00641             -34.00    -5200.00
00642              10.00    -5600.00
00643               6.00    -5200.00
00644             -14.00    -5800.00
00645              12.00    -6000.00
00646             -18.00    -5800.00
00647              -2.00    -6600.00
00648             -16.00    -6200.00
00649              12.00    -6600.00
00650             -18.00    -6800.00
00651              -2.00    -6800.00
00652              12.00    -7000.00
00653             -36.00    -7400.00
00654              16.00    -7400.00
00655              -8.00    -7400.00
00656              -6.00    -7800.00
00657               8.00    -7800.00
00658             -18.00    -8000.00
00659               0.00    -8200.00
00660              -2.00    -8200.00
00661             -14.00    -8400.00
00662              -2.00    -8600.00
00663               8.00    -8600.00
00664             -14.00    -8800.00
00665               0.00    -8800.00
00666              -2.00    -9000.00
00667             -14.00    -9000.00
00668               0.00    -9200.00
00669               0.00    -9200.00
00670              -8.00    -9400.00
00671              -2.00    -9600.00
00672              -6.00    -9800.00
00673              -6.00    -9800.00
00674               0.00    -9800.00
00675              -8.00   -10000.00
00676               0.00   -10000.00
00677               6.00   -10200.00
00678             -10.00   -10200.00
00679              -6.00   -10200.00
00680              -2.00   -10400.00
00681              -8.00   -10400.00
00682              -2.00   -10600.00
00683               0.00   -10400.00
00684              -2.00   -10800.00
00685              -6.00   -10800.00
00686              -4.00   -10800.00
00687              -6.00   -11000.00
00688              -2.00   -11000.00
00689              -6.00   -11000.00
00690              -4.00   -11000.00
00691              -2.00   -11200.00
00692              -6.00   -11400.00
00693              -8.00   -11400.00
00694              -4.00   -11200.00
00695              -6.00   -11400.00
00696               0.00   -11400.00
00697              -2.00   -11400.00
00698              -2.00   -11600.00
00699              -6.00   -11400.00
00700              -8.00   -11400.00
00701              -6.00   -11600.00
00702              -4.00   -11400.00
00703              -4.00   -11600.00
00704              -6.00   -11600.00
00705              -4.00   -11600.00
00706              -8.00   -11600.00
00707              -6.00   -11600.00
00708              -2.00   -11600.00
00709              -6.00   -11800.00
00710              -2.00   -11600.00
00711              -4.00   -11400.00
00712              -6.00   -11600.00
00713              -6.00   -11600.00
00714              -6.00   -11400.00
00715              -6.00   -11400.00
00716              -6.00   -11600.00
00717              -2.00   -11400.00
00718              -6.00   -11400.00
00719              -8.00   -11400.00
00720              -6.00   -11400.00
00721              -6.00   -11400.00
00722              -6.00   -11000.00
00723              -4.00   -11000.00
00724              -6.00   -11000.00
00725              -2.00   -11000.00
00726              -8.00   -11000.00
00727              -6.00   -11000.00
00728              -8.00   -11000.00
00729              -2.00   -10800.00
00730              -4.00   -10400.00
00731              -4.00   -10600.00
00732              -6.00   -10400.00
00733              -6.00   -10600.00
00734              -6.00   -10400.00
00735              -6.00   -10200.00
00736              -2.00   -10200.00
00737              -2.00   -10000.00
00738              -6.00   -10000.00
00739              -6.00   -10000.00
00740              -6.00   -10000.00
00741              -6.00    -9800.00
00742              -2.00    -9400.00
00743              -2.00    -9400.00
00744              -2.00    -9200.00
00745              -6.00    -9200.00
00746              -6.00    -9200.00
00747              -6.00    -9000.00
00748              -4.00    -9000.00
00749              -2.00    -8600.00
00750              -2.00    -8600.00
00751              -6.00    -8600.00
00752              -2.00    -8400.00
00753              -6.00    -8200.00
00754              -4.00    -8200.00
00755              -6.00    -8200.00
00756              -2.00    -8000.00
00757              -6.00    -7800.00
00758              -2.00    -7600.00
00759              -6.00    -7600.00
00760              -6.00    -7400.00
00761              -6.00    -7400.00
00762              -6.00    -7000.00
00763              -2.00    -7000.00
00764              -6.00    -6800.00
00765              -6.00    -6600.00
00766              -6.00    -6400.00
00767              -6.00    -6200.00
00768              -8.00    -6200.00
00769              -2.00    -5800.00
00770              -6.00    -6000.00
00771              -8.00    -5600.00
00772              -6.00    -5400.00
00773              -8.00    -5400.00
00774              -6.00    -5200.00
00775              -2.00    -5000.00
00776              -6.00    -4600.00
00777              -6.00    -4600.00
00778              -6.00    -4400.00
00779              -6.00    -4000.00
00780              -4.00    -4000.00
00781              -6.00    -3800.00
00782              -6.00    -3600.00
00783              -2.00    -3400.00
00784              -6.00    -3400.00
00785              -4.00    -3000.00
00786              -6.00    -3000.00
00787              -6.00    -2800.00
00788              -4.00    -2600.00
00789              -4.00    -2200.00
00790              -2.00    -2200.00
00791              -2.00    -2000.00
00792              -4.00    -1800.00
00793              -6.00    -1600.00
00794              -2.00    -1400.00
00795              -2.00    -1400.00
00796              -2.00    -1200.00
00797              -2.00    -1000.00
00798              -6.00     -600.00
00799              -6.00     -600.00
00800              -4.00     -400.00
00801              -2.00        0.00
00802               0.00        0.00
00803               0.00      200.00
00804               2.00      400.00
00805              16.00      600.00
00806              16.00      600.00
00807              -2.00     1000.00
00808              -6.00     1000.00
00809               8.00     1400.00
00810               8.00     1400.00
00811               8.00     1800.00
00812              80.00     1800.00
00813             218.00     2400.00
00814             -36.00     2400.00
00815            -254.00     2400.00
00816            -120.00     2800.00
00817              90.00     2800.00
00818             -72.00     2800.00
00819             218.00     3400.00
00820              34.00     3400.00
00821            -254.00     3400.00
00822             240.00     4200.00
00823              30.00     3800.00
00824            -134.00     3800.00
00825              94.00     4600.00
00826            -122.00     4000.00
00827             166.00     5000.00
00828               6.00     5000.00
00829            -204.00     4400.00
00830             168.00     5600.00
00831             -38.00     5200.00
00832             -38.00     5200.00
00833              40.00     6200.00
00834             -34.00     5600.00
00835              50.00     6000.00
00836             -22.00     6600.00
00837             -14.00     6200.00
00838             -18.00     6600.00
00839              26.00     6800.00
00840             -20.00     6600.00
00841              10.00     7200.00
00842              18.00     7400.00
00843             -64.00     7200.00
00844              50.00     7800.00
00845             -10.00     7600.00
00846             -10.00     7600.00
00847              20.00     8000.00
00848             -22.00     8000.00
00849              10.00     8200.00
00850               8.00     8600.00
00851             -22.00     8400.00
00852               0.00     8800.00
00853              22.00     9000.00
00854             -22.00     8600.00
00855              14.00     9200.00
00856               0.00     9200.00
00857             -14.00     9200.00
00858               8.00     9400.00
00859              -2.00     9400.00
00860              -2.00     9600.00
00861               8.00     9800.00
00862               0.00     9800.00
00863             -10.00     9800.00
00864               6.00    10000.00
00865             -10.00    10200.00
00866              10.00    10200.00
00867              10.00    10200.00
00868              -8.00    10600.00
00869               0.00    10600.00
00870               2.00    10600.00
00871              -6.00    10800.00
00872               2.00    10600.00
00873               2.00    10800.00
00874               0.00    10800.00
00875               6.00    11000.00
00876              -4.00    11200.00
00877              -2.00    11000.00
00878               2.00    11200.00
00879              -2.00    11400.00
00880               4.00    11400.00
00881               6.00    11400.00
00882              -2.00    11400.00
00883              -2.00    11400.00
00884               0.00    11600.00
00885               0.00    11600.00
00886               4.00    11600.00
00887               2.00    11600.00
00888               0.00    11600.00
00889               2.00    11800.00
00890              -2.00    11800.00
00891               0.00    11800.00
00892               2.00    11800.00
00893               0.00    11800.00
00894               0.00    11800.00
00895               0.00    11800.00
00896              -2.00    11800.00
00897              -2.00    11800.00
00898               0.00    11800.00
00899               0.00    11800.00
00900               0.00    11800.00
00901               2.00    11800.00
00902               0.00    11800.00
00903              -2.00    11600.00
00904              -6.00    11800.00
00905               0.00    11600.00
00906               0.00    11800.00
00907               2.00    11600.00
00908               0.00    11600.00
00909               0.00    11800.00
00910              -2.00    11600.00
00911              -2.00    11600.00
00912               0.00    11400.00
00913               0.00    11600.00
00914               0.00    11400.00
00915              -2.00    11400.00
00916               0.00    11400.00
00917              -2.00    11400.00
00918              -2.00    11200.00
00919              -2.00    11000.00
00920               0.00    11000.00
00921               0.00    11000.00
00922              -2.00    10800.00
00923              -2.00    11000.00
00924              -2.00    10800.00
00925               0.00    10600.00
00926               0.00    10600.00
00927               0.00    10400.00
00928              -2.00    10200.00
00929               0.00    10200.00
00930              -2.00    10200.00
00931              -2.00    10000.00
00932               0.00    10000.00
00933               0.00    10000.00
00934               2.00    10000.00
00935               0.00     9800.00
00936              -2.00     9800.00
00937              -2.00     9400.00
00938               0.00     9400.00
00939              -2.00     9200.00
00940               0.00     9200.00
00941               0.00     9000.00
00942               0.00     9000.00
00943              -2.00     8800.00
00944              -2.00     8800.00
00945               0.00     8400.00
00946               0.00     8200.00
00947               0.00     8400.00
00948               0.00     8200.00
00949               0.00     8000.00
00950              -2.00     7800.00
00951              -2.00     7600.00
00952              -4.00     7400.00
00953               0.00     7400.00
00954               0.00     7200.00
00955               0.00     7000.00
00956               0.00     6800.00
00957              -2.00     6600.00
00958              -2.00     6600.00
00959              -2.00     6600.00
00960               0.00     6200.00
00961              -2.00     6000.00
00962              -2.00     5800.00
00963              -4.00     5600.00
00964              -2.00     5600.00
00965              -4.00     5400.00
00966              -2.00     5200.00
00967               0.00     5000.00
00968              -2.00     4800.00
00969              -2.00     4600.00
00970              -6.00     4400.00
00971              -4.00     4200.00
00972              -2.00     4200.00
00973              -2.00     4200.00
00974              -2.00     3800.00
00975              -2.00     3600.00
00976              -2.00     3400.00
00977              -6.00     3400.00
00978              -6.00     3000.00
00979              -4.00     2800.00
00980               0.00     2800.00
00981              -2.00     2600.00
00982              -6.00     2400.00
00983              -6.00     2000.00
00984              -8.00     1800.00
00985              -6.00     1800.00
00986              -2.00     1400.00
00987              -2.00     1400.00
00988              -2.00     1200.00
00989              -6.00     1000.00
00990              -6.00      800.00
00991              -2.00      600.00
00992              -2.00      400.00
00993              -2.00      400.00
00994               0.00      200.00
00995               0.00     -200.00
00996              14.00     -200.00
00997              18.00     -400.00
00998              -6.00     -600.00
00999             -10.00    -1000.00
01000               6.00    -1000.00
01001               6.00    -1200.00
01002              -2.00    -1400.00
01003              16.00    -1400.00
01004              94.00    -1800.00
01005             170.00    -2000.00
01006             -94.00    -2200.00
01007            -254.00    -2600.00
01008             -48.00    -2600.00
01009             120.00    -2800.00
01010            -104.00    -2800.00
01011             -48.00    -2800.00
01012             246.00    -3400.00
01013            -104.00    -3400.00
01014             -54.00    -3400.00
01015              96.00    -4000.00
01016             -38.00    -3600.00
01017              34.00    -4000.00
01018             -64.00    -4200.00
01019              32.00    -4600.00
01020              54.00    -4400.00
01021            -108.00    -5000.00
01022              38.00    -5000.00
01023               6.00    -5000.00
01024             -24.00    -5600.00
01025              24.00    -5400.00
01026             -22.00    -5800.00
01027              14.00    -6000.00
01028             -16.00    -5800.00
01029               0.00    -6200.00
01030             -10.00    -6400.00
01031               8.00    -6200.00
01032              -8.00    -6800.00
01033             -22.00    -7000.00
01034              24.00    -6800.00
01035             -32.00    -7200.00
01036               2.00    -7400.00
01037               8.00    -7600.00
01038             -14.00    -7600.00
01039              10.00    -7800.00
01040             -14.00    -7800.00
01041              -8.00    -8200.00
01042               6.00    -8200.00
01043             -12.00    -8400.00
01044             -14.00    -8600.00
01045              10.00    -8400.00
01046             -10.00    -8800.00
01047             -10.00    -8800.00
01048               2.00    -9000.00
01049             -10.00    -9200.00
01050              -6.00    -9200.00
01051               2.00    -9200.00
01052              -6.00    -9400.00
01053              -2.00    -9400.00
01054              -2.00    -9600.00
01055             -10.00    -9800.00
01056              -2.00    -9800.00
01057              -6.00    -9800.00
01058              -6.00   -10000.00
01059               6.00   -10200.00
01060              -8.00   -10200.00
01061             -10.00   -10400.00
01062              -2.00   -10200.00
01063              -6.00   -10600.00
01064              -4.00   -10600.00
01065               0.00   -10400.00
01066              -2.00   -10800.00
01067              -2.00   -10800.00
01068              -6.00   -10800.00
01069              -8.00   -11000.00
01070              -2.00   -10800.00
01071              -2.00   -11000.00
01072              -6.00   -11400.00
01073              -2.00   -11200.00
01074              -6.00   -11200.00
01075              -8.00   -11400.00
01076              -2.00   -11400.00
01077              -2.00   -11400.00
01078              -2.00   -11400.00
01079              -2.00   -11400.00
01080              -6.00   -11600.00
01081              -6.00   -11400.00
01082              -6.00   -11400.00
01083              -4.00   -11600.00
01084              -2.00   -11400.00
01085              -2.00   -11600.00
01086              -6.00   -11600.00
01087              -2.00   -11600.00
01088              -6.00   -11600.00
01089              -6.00   -11600.00
01090              -6.00   -11600.00
01091              -4.00   -11600.00
01092              -6.00   -11600.00
01093              -4.00   -11400.00
01094              -8.00   -11600.00
01095              -6.00   -11400.00
01096              -6.00   -11400.00
01097              -8.00   -11600.00
01098              -6.00   -11400.00
01099              -2.00   -11400.00
01100              -4.00   -11400.00
01101              -6.00   -11400.00
01102              -8.00   -11400.00
01103              -8.00   -11200.00
01104              -8.00   -11200.00
01105              -6.00   -11000.00
01106              -6.00   -11000.00
01107              -6.00   -11200.00
01108              -8.00   -11000.00
01109              -6.00   -11000.00
01110              -8.00   -10800.00
01111              -2.00   -10800.00
01112              -6.00   -10800.00
01113              -8.00   -10600.00
01114              -6.00   -10600.00
01115              -8.00   -10400.00
01116              -6.00   -10400.00
01117              -6.00   -10400.00
01118              -2.00   -10200.00
01119              -2.00   -10200.00
01120              -6.00   -10000.00
01121              -6.00   -10000.00
01122              -6.00   -10000.00
01123              -2.00    -9800.00
01124              -6.00    -9600.00
01125              -2.00    -9400.00
01126              -6.00    -9400.00
01127              -6.00    -9400.00
01128              -6.00    -9200.00
01129              -4.00    -9200.00
01130              -2.00    -9000.00
01131              -2.00    -8800.00
01132              -4.00    -8600.00
01133              -2.00    -8600.00
01134              -6.00    -8400.00
01135              -8.00    -8200.00
01136              -6.00    -8400.00
01137              -6.00    -8000.00
01138              -4.00    -8000.00
01139              -2.00    -7800.00
01140              -6.00    -7800.00
01141              -6.00    -7600.00
01142              -6.00    -7600.00
01143              -8.00    -7200.00
01144              -2.00    -7000.00
01145              -2.00    -6800.00
01146              -2.00    -6800.00
01147              -6.00    -6600.00
01148              -4.00    -6600.00
01149              -6.00    -6200.00
01150              -2.00    -6000.00
01151              -2.00    -6000.00
01152              -2.00    -5800.00
01153              -2.00    -5800.00
01154              -6.00    -5400.00
01155              -8.00    -5400.00
01156              -8.00    -5200.00
01157              -6.00    -5000.00
01158              -4.00    -5000.00
01159              -2.00    -4600.00
01160              -8.00    -4400.00
01161              -6.00    -4000.00
01162              -6.00    -4000.00
01163              -4.00    -3800.00
01164              -6.00    -3600.00
01165              -2.00    -3600.00
01166              -2.00    -3400.00
01167              -6.00    -3200.00
01168              -6.00    -3000.00
01169              -6.00    -3000.00
01170              -6.00    -2800.00
01171              -2.00    -2600.00
01172              -2.00    -2200.00
01173              -6.00    -2000.00
01174              -2.00    -2000.00
01175              -6.00    -1800.00
01176              -4.00    -1800.00
01177              -2.00    -1400.00
01178              -4.00    -1200.00
01179              -2.00    -1200.00
01180              -2.00     -600.00
01181              -6.00     -600.00
01182              -6.00     -400.00
01183              -2.00     -200.00
01184               0.00        0.00
01185               0.00      200.00
01186               0.00      400.00
01187              10.00      600.00
01188              20.00      600.00
01189               0.00      800.00
01190              -8.00     1000.00
01191               2.00     1200.00
01192              10.00     1200.00
01193               6.00     1600.00
01194              42.00     1800.00
01195             192.00     2200.00
01196              94.00     2600.00
01197            -254.00     2600.00
01198            -214.00     2800.00
01199              70.00     2800.00
01200             -32.00     2800.00
01201              98.00     3200.00
01202             202.00     3600.00
01203            -254.00     3200.00
01204              96.00     3800.00
01205             186.00     4000.00
01206            -186.00     3800.00
01207              80.00     4600.00
01208             -78.00     4200.00
01209              48.00     4400.00
01210             150.00     5200.00
01211            -242.00     4400.00
01212              88.00     5200.00
01213              66.00     5400.00
01214             -90.00     5000.00
01215              58.00     6000.00
01216             -38.00     5800.00
01217              38.00     6000.00
01218               6.00     6600.00
01219             -22.00     6200.00
01220             -14.00     6400.00
01221              14.00     6800.00
01222               8.00     6600.00
01223             -20.00     6800.00
01224              44.00     7400.00
01225             -62.00     7000.00
01226              16.00     7400.00
01227              30.00     7800.00
01228             -32.00     7600.00
01229              26.00     7800.00
01230             -16.00     8200.00
01231              -2.00     8200.00
01232              10.00     8400.00
01233             -16.00     8400.00
01234             -14.00     8600.00
01235              26.00     8800.00
01236             -16.00     8800.00
01237              -2.00     9000.00
01238              14.00     9200.00
01239             -18.00     9200.00
01240               6.00     9400.00
01241               0.00     9400.00
01242              -2.00     9400.00
01243               4.00     9800.00
01244               6.00     9800.00
01245             -14.00     9800.00
01246               2.00    10000.00
01247              -8.00    10000.00
01248               0.00    10200.00
01249              16.00    10200.00
01250              -6.00    10200.00
01251              -4.00    10600.00
01252               2.00    10800.00
01253              -8.00    10600.00
01254              -2.00    10800.00
01255               6.00    11000.00
01256              -2.00    10800.00
01257               2.00    11000.00
01258               0.00    11000.00
01259              -6.00    11200.00
01260               0.00    11200.00
01261               0.00    11400.00
01262               0.00    11400.00
01263               8.00    11400.00
01264               0.00    11400.00
01265              -2.00    11600.00
01266               0.00    11600.00
01267              -2.00    11600.00
01268               0.00    11600.00
01269               4.00    11800.00
01270               0.00    11600.00
01271               0.00    11800.00
01272              -2.00    11800.00
01273              -6.00    11800.00
01274               2.00    11800.00
01275               0.00    11800.00
01276               0.00    11800.00
01277               2.00    11800.00
01278               0.00    12000.00
01279              -2.00    11800.00
01280               0.00    11800.00
01281               0.00    11800.00
01282               2.00    11800.00
01283               2.00    11800.00
01284               0.00    11800.00
01285               0.00    11800.00
01286              -2.00    11800.00
01287              -2.00    11800.00
01288               0.00    11800.00
01289               0.00    11800.00
01290              -2.00    11600.00
01291              -2.00    11600.00
01292              -2.00    11600.00
01293              -2.00    11600.00
01294               0.00    11600.00
01295               0.00    11600.00
01296               0.00    11400.00
01297               0.00    11400.00
01298              -2.00    11400.00
01299              -2.00    11400.00
01300              -2.00    11400.00
01301               0.00    11200.00
01302               0.00    11000.00
01303               0.00    11000.00
01304               0.00    11000.00
01305               0.00    10800.00
01306              -2.00    10800.00
01307              -2.00    10600.00
01308              -2.00    10600.00
01309               0.00    10600.00
01310               0.00    10400.00
01311              -2.00    10400.00
01312              -2.00    10200.00
01313              -2.00    10200.00
01314              -2.00    10000.00
01315               0.00    10000.00
01316              -2.00     9800.00
01317               0.00     9800.00
01318              -2.00     9800.00
01319              -2.00     9400.00
01320              -2.00     9400.00
01321              -2.00     9200.00
01322               0.00     9200.00
01323              -2.00     9200.00
01324               0.00     9000.00
01325              -2.00     8800.00
01326              -4.00     8600.00
01327              -2.00     8400.00
01328               0.00     8400.00
01329              -2.00     8200.00
01330               0.00     8200.00
01331              -2.00     8200.00
01332              -2.00     7800.00
01333              -2.00     7600.00
01334              -2.00     7600.00
01335               0.00     7400.00
01336               0.00     7200.00
01337              -2.00     7000.00
01338              -2.00     7000.00
01339              -2.00     6800.00
01340              -6.00     6600.00
01341               0.00     6600.00
01342              -2.00     6400.00
01343               0.00     6200.00
01344              -2.00     6000.00
01345              -2.00     5800.00
01346              -2.00     5800.00
01347              -2.00     5400.00
01348               0.00     5400.00
01349              -2.00     5000.00
01350               0.00     5000.00
01351              -6.00     4800.00
01352               0.00     4600.00
01353              -6.00     4400.00
01354              -2.00     4200.00
01355              -2.00     4000.00
01356               0.00     3800.00
01357              -2.00     3600.00
01358              -2.00     3600.00
01359              -6.00     3400.00
01360              -4.00     3200.00
01361              -2.00     2800.00
01362              -2.00     2800.00
01363              -2.00     2600.00
01364              -4.00     2400.00
01365              -4.00     2200.00
01366              -2.00     2000.00
01367              -6.00     1800.00
01368              -6.00     1400.00
01369              -2.00     1400.00
01370              -2.00     1200.00
01371              -2.00     1000.00
01372              -4.00     1000.00
01373              -4.00      600.00
01374              -6.00      600.00
01375              -2.00      400.00
01376              -2.00      200.00
01377               0.00     -200.00
01378               8.00     -200.00
01379              18.00     -400.00
01380               0.00     -600.00
01381              -8.00     -800.00
01382               0.00     -800.00
01383              10.00    -1200.00
01384               0.00    -1200.00
01385               6.00    -1400.00
01386              62.00    -1800.00
01387             174.00    -1800.00
01388              16.00    -2200.00
01389            -254.00    -2600.00
01390            -138.00    -2600.00
01391             106.00    -2800.00
01392             -20.00    -2800.00
01393            -130.00    -2800.00
01394             216.00    -3000.00
01395              38.00    -3600.00
01396            -144.00    -3200.00
01397             102.00    -3800.00
01398             -14.00    -3800.00
01399              10.00    -3800.00
01400             -24.00    -4200.00
01401             -34.00    -4400.00
01402             104.00    -4400.00
01403             -90.00    -4800.00
01404             -14.00    -5000.00
01405              38.00    -5000.00
01406             -40.00    -5400.00
01407              30.00    -5400.00
01408             -16.00    -5400.00
01409              10.00    -6000.00
01410              -2.00    -5800.00
01411              -8.00    -6000.00
01412              -6.00    -6600.00
01413               0.00    -6200.00
01414               6.00    -6800.00
01415             -26.00    -6800.00
01416              22.00    -6800.00
01417             -16.00    -7400.00
01418             -20.00    -7400.00
01419              16.00    -7400.00
01420             -16.00    -7600.00
01421               8.00    -7800.00
01422               0.00    -7800.00
01423             -16.00    -8200.00
01424               6.00    -8200.00
01425              -8.00    -8200.00
01426             -14.00    -8600.00
01427               6.00    -8400.00
01428              -2.00    -8600.00
01429             -14.00    -8800.00
01430               6.00    -9000.00
01431             -10.00    -9200.00
01432             -10.00    -9200.00
01433               4.00    -9200.00
01434              -2.00    -9400.00
01435              -6.00    -9400.00
01436              -2.00    -9600.00
01437             -10.00    -9800.00
01438              -2.00    -9800.00
01439              -4.00    -9800.00
01440             -10.00   -10000.00
01441               6.00   -10200.00
01442              -4.00   -10200.00
01443             -12.00   -10200.00
01444              -2.00   -10200.00
01445              -6.00   -10200.00
01446              -6.00   -10600.00
01447               0.00   -10400.00
01448              -2.00   -10600.00
01449              -4.00   -10600.00
01450              -6.00   -10800.00
01451              -8.00   -11000.00
01452              -6.00   -11000.00
01453              -4.00   -11000.00
01454              -6.00   -11000.00
01455              -2.00   -11000.00
01456              -4.00   -11200.00
01457              -8.00   -11400.00
01458              -6.00   -11400.00
01459              -4.00   -11400.00
01460              -2.00   -11400.00
01461              -2.00   -11400.00
01462              -2.00   -11400.00
01463              -6.00   -11400.00
01464              -6.00   -11600.00
01465              -8.00   -11600.00
01466              -2.00   -11400.00
01467              -2.00   -11400.00
01468              -4.00   -11600.00
01469              -6.00   -11600.00
01470              -6.00   -11600.00
01471              -6.00   -11600.00
01472              -6.00   -11400.00
01473              -2.00   -11600.00
01474              -6.00   -11400.00
01475              -4.00   -11400.00
01476              -6.00   -11600.00
01477              -6.00   -11400.00
01478              -2.00   -11400.00
01479              -2.00   -11400.00
01480              -6.00   -11400.00
01481              -2.00   -11400.00
01482              -2.00   -11400.00
01483              -8.00   -11400.00
01484              -6.00   -11400.00
01485              -6.00   -11200.00
01486              -6.00   -11400.00
01487              -6.00   -11000.00
01488              -6.00   -11000.00
01489              -6.00   -11000.00
01490              -8.00   -11000.00
01491              -6.00   -11000.00
01492              -6.00   -10800.00
01493              -4.00   -11000.00
01494              -6.00   -10800.00
01495              -2.00   -10600.00
01496              -8.00   -10400.00
01497              -8.00   -10600.00
01498             -10.00   -10400.00
01499              -2.00   -10400.00
01500              -6.00   -10200.00
01501              -2.00   -10200.00
01502              -8.00   -10200.00
01503              -6.00   -10000.00
01504              -8.00    -9800.00
01505              -8.00    -9800.00
01506              -6.00    -9800.00
01507              -2.00    -9600.00
01508              -2.00    -9400.00
01509              -8.00    -9400.00
01510              -6.00    -9200.00
01511              -8.00    -9000.00
01512              -4.00    -9000.00
01513              -2.00    -9000.00
01514              -2.00    -8600.00
01515              -2.00    -8600.00
01516              -2.00    -8600.00
01517              -8.00    -8400.00
01518              -8.00    -8200.00
01519              -6.00    -8200.00
01520              -2.00    -8000.00
01521              -2.00    -7800.00
01522              -6.00    -7800.00
01523              -6.00    -7600.00
01524              -6.00    -7400.00
01525              -2.00    -7200.00
01526              -2.00    -7200.00
01527              -2.00    -7000.00
01528              -2.00    -6800.00
01529              -2.00    -6800.00
01530              -6.00    -6600.00
01531              -6.00    -6400.00
01532              -4.00    -6200.00
01533              -2.00    -6000.00
01534               0.00    -5800.00
01535              -2.00    -5800.00
01536              -4.00    -5800.00
01537              -6.00    -5400.00
01538              -2.00    -5200.00
01539              -2.00    -5000.00
01540              -2.00    -4800.00
01541              -2.00    -4600.00
01542              -2.00    -4400.00
01543              -6.00    -4200.00
01544              -2.00    -4200.00
01545              -2.00    -3800.00
01546              -4.00    -3800.00
01547              -2.00    -3600.00
01548              -2.00    -3400.00
01549              -2.00    -3400.00
01550              -6.00    -3000.00
01551              -6.00    -3000.00
01552              -8.00    -2800.00
01553              -4.00    -2600.00
01554              -2.00    -2400.00
01555              -2.00    -2200.00
01556              -2.00    -2000.00
01557              -8.00    -1800.00
01558              -6.00    -1600.00
01559              -2.00    -1400.00
01560              -2.00    -1200.00
01561              -2.00    -1000.00
01562              -2.00    -1000.00
01563              -2.00     -600.00
01564              -6.00     -600.00
01565              -4.00     -200.00
01566              -2.00        0.00
01567              -2.00      200.00
01568               0.00      200.00
01569               6.00      600.00
01570              20.00      600.00
01571               8.00     1000.00
01572              -6.00     1000.00
01573              -2.00     1200.00
01574              10.00     1200.00
01575               6.00     1400.00
01576              22.00     1800.00
01577             142.00     2000.00
01578             178.00     2400.00
01579            -198.00     2400.00
01580            -254.00     2600.00
01581               0.00     2800.00
01582              32.00     2800.00
01583             -14.00     3000.00
01584             246.00     3600.00
01585            -200.00     3000.00
01586             -98.00     3800.00
01587             246.00     4200.00
01588            -140.00     3400.00
01589              -6.00     4400.00
01590              14.00     4400.00
01591             -66.00     4200.00
01592             216.00     5200.00
01593            -174.00     4600.00
01594             -48.00     5000.00
01595             152.00     5600.00
01596            -106.00     5000.00
01597              34.00     5800.00
01598             -10.00     6000.00
01599               6.00     5400.00
01600              32.00     6200.00
01601             -28.00     6400.00
01602              -8.00     6400.00
01603              -6.00     6800.00
01604              28.00     6800.00
01605             -32.00     6800.00
01606              42.00     7400.00
01607             -26.00     7200.00
01608             -26.00     7400.00
01609              56.00     7800.00
01610             -38.00     7400.00
01611              22.00     7800.00
01612               0.00     8200.00
01613             -14.00     8000.00
01614              14.00     8400.00
01615              -4.00     8600.00
01616             -24.00     8400.00
01617              22.00     8800.00
01618               0.00     9000.00
01619             -16.00     8800.00
01620              18.00     9200.00
01621             -16.00     9200.00
01622              -2.00     9400.00
01623               2.00     9400.00
01624              -2.00     9400.00
01625               0.00     9800.00
01626               8.00     9800.00
01627             -10.00     9800.00
01628              -2.00    10000.00
01629               0.00    10200.00
01630             -10.00    10200.00
01631              16.00    10200.00
01632               0.00    10400.00
01633             -10.00    10600.00
01634               2.00    10600.00
01635              -6.00    10600.00
01636              -6.00    10600.00
01637               6.00    10800.00
01638               0.00    11000.00
01639               2.00    11000.00
01640               0.00    11000.00
01641              -6.00    11000.00
01642               0.00    11400.00
01643               0.00    11400.00
01644              -2.00    11200.00
01645               2.00    11400.00
01646               2.00    11400.00
01647              -6.00    11400.00
01648               0.00    11600.00
01649              -2.00    11600.00
01650               0.00    11400.00
01651               2.00    11600.00
01652               0.00    11600.00
01653               2.00    11800.00
01654              -2.00    11800.00
01655              -2.00    11600.00
01656               0.00    11800.00
01657               0.00    11600.00
01658              -2.00    11800.00
01659               2.00    11800.00
01660               0.00    11800.00
01661              -2.00    11800.00
01662               0.00    11800.00
01663               0.00    11800.00
01664               0.00    11800.00
01665               2.00    11800.00
01666               0.00    11800.00
01667              -2.00    11800.00
01668              -2.00    11800.00
01669              -2.00    11800.00
01670               0.00    11800.00
01671               0.00    11800.00
01672               0.00    11600.00
01673               0.00    11600.00
01674               0.00    11600.00
01675              -2.00    11600.00
01676              -2.00    11600.00
01677              -2.00    11400.00
01678               0.00    11400.00
01679               0.00    11400.00
01680              -2.00    11400.00
01681              -2.00    11200.00
01682              -2.00    11200.00
01683              -2.00    11200.00
01684               0.00    11200.00
01685               2.00    11000.00
01686               0.00    11000.00
01687              -2.00    10800.00
01688              -2.00    10800.00
01689              -6.00    10800.00
01690              -2.00    10600.00
01691               0.00    10600.00
01692               2.00    10400.00
01693              -2.00    10600.00
01694              -4.00    10200.00
01695              -2.00    10200.00
01696               0.00    10200.00
01697              -2.00    10000.00
01698              -2.00     9800.00
01699               0.00     9800.00
01700               0.00     9600.00
01701              -2.00     9600.00
01702              -6.00     9400.00
01703              -2.00     9400.00
01704               0.00     9200.00
01705               0.00     9000.00
01706               0.00     9000.00
01707               0.00     9000.00
01708              -2.00     8600.00
01709              -2.00     8800.00
01710              -2.00     8400.00
01711              -2.00     8400.00
01712               0.00     8200.00
01713               0.00     8000.00
01714              -2.00     7800.00
01715              -2.00     7800.00
01716               0.00     7600.00
01717               0.00     7400.00
01718               2.00     7400.00
01719               8.00     7000.00
01720             -12.00     7000.00
01721              -6.00     6800.00
01722              -6.00     6600.00
01723               0.00     6600.00
01724             -24.00     6400.00
01725              -8.00     6000.00
01726              30.00     6200.00
01727              10.00     6000.00
01728              24.00     5800.00
01729             -26.00     5400.00
01730              26.00     5200.00
01731             -22.00     5000.00
01732             -10.00     5000.00
01733             -38.00     4600.00
01734               2.00     4600.00
01735              22.00     4600.00
01736              -6.00     4400.00
01737              14.00     4200.00
01738              -6.00     4200.00
01739              18.00     3600.00
01740             -14.00     3600.00
01741             -10.00     3400.00
01742              -8.00     3200.00
01743               0.00     3000.00
01744              -8.00     2800.00
01745             -10.00     2600.00
01746               4.00     2400.00
01747              -2.00     2200.00
01748               6.00     2000.00
01749              -2.00     2000.00
01750               4.00     1800.00
01751              -2.00     1400.00
01752             -14.00     1200.00
01753             -10.00     1000.00
01754             -10.00     1000.00
01755             -10.00      600.00
01756              -2.00      600.00
01757               6.00      400.00
01758               8.00      200.00
01759               6.00      200.00
01760               6.00        0.00
01761              20.00     -200.00
01762               6.00     -400.00
01763             -16.00     -800.00
01764             -14.00    -1000.00
01765               8.00    -1200.00
01766               2.00    -1200.00
01767               6.00    -1400.00
01768              38.00    -1400.00
01769             150.00    -1800.00
01770             112.00    -2200.00
01771            -210.00    -2600.00
01772            -218.00    -2600.00
01773              48.00    -2800.00
01774              62.00    -3000.00
01775            -154.00    -2800.00
01776             114.00    -3000.00
01777             178.00    -3400.00
01778            -182.00    -3400.00
01779              60.00    -3600.00
01780              32.00    -3800.00
01781             -24.00    -3800.00
01782              14.00    -4200.00
01783             -80.00    -4400.00
01784              98.00    -4400.00
01785             -32.00    -4600.00
01786             -66.00    -5000.00
01787              62.00    -4800.00
01788             -38.00    -5200.00
01789              16.00    -5600.00
01790               2.00    -5200.00
01791              -8.00    -6000.00
01792              10.00    -6000.00
01793             -16.00    -5800.00
01794              -2.00    -6600.00
01795             -10.00    -6200.00
01796              14.00    -6600.00
01797             -22.00    -6800.00
01798               2.00    -7000.00
01799              10.00    -7200.00
01800             -34.00    -7400.00
01801              18.00    -7400.00
01802             -10.00    -7600.00
01803              -2.00    -7800.00
01804              10.00    -7800.00
01805             -16.00    -8000.00
01806               0.00    -8200.00
01807              -2.00    -8200.00
01808             -14.00    -8400.00
01809              -2.00    -8600.00
01810               6.00    -8600.00
01811             -16.00    -8600.00
01812              -2.00    -9000.00
01813              -2.00    -9000.00
01814             -16.00    -9200.00
01815               2.00    -9200.00
01816               0.00    -9400.00
01817              -8.00    -9400.00
01818              -2.00    -9600.00
01819             -10.00    -9800.00
01820             -10.00    -9800.00
01821              -2.00    -9800.00
01822             -10.00   -10000.00
01823               0.00   -10000.00
01824               2.00   -10200.00
01825             -10.00   -10200.00
01826              -8.00   -10200.00
01827              -6.00   -10400.00
01828             -10.00   -10600.00
01829              -6.00   -10400.00
01830              -2.00   -10800.00
01831              -6.00   -10800.00
01832              -6.00   -10800.00
01833              -8.00   -11000.00
01834              -8.00   -11000.00
01835               0.00   -11000.00
01836              -6.00   -11000.00
01837              -6.00   -11000.00
01838              -2.00   -11200.00
01839              -8.00   -11400.00
01840              -8.00   -11400.00
01841              -6.00   -11400.00
01842              -6.00   -11400.00
01843              -6.00   -11400.00
01844              -2.00   -11400.00
01845              -6.00   -11400.00
01846              -6.00   -11600.00
01847              -6.00   -11600.00
01848              -6.00   -11600.00
01849              -2.00   -11600.00
01850              -2.00   -11400.00
01851              -6.00   -11600.00
01852              -6.00   -11600.00
01853              -6.00   -11800.00
01854              -6.00   -11600.00
01855              -6.00   -11600.00
01856              -6.00   -11600.00
01857              -4.00   -11600.00
01858              -2.00   -11600.00
01859              -6.00   -11400.00
01860              -6.00   -11400.00
01861              -8.00   -11600.00
01862              -6.00   -11400.00
01863              -2.00   -11400.00
01864              -2.00   -11400.00
01865              -2.00   -11400.00
01866              -4.00   -11400.00
01867              -6.00   -11400.00
01868              -4.00   -11400.00
01869              -6.00   -11000.00
01870              -2.00   -11200.00
01871              -2.00   -11000.00
01872              -4.00   -11000.00
01873              -8.00   -11000.00
01874              -6.00   -10800.00
01875              -8.00   -10800.00
01876              -4.00   -10800.00
01877              -6.00   -10800.00
01878              -6.00   -10600.00
01879              -4.00   -10400.00
01880              -8.00   -10600.00
01881              -6.00   -10400.00
01882              -6.00   -10200.00
01883              -2.00   -10200.00
01884              -6.00   -10000.00
01885              -6.00   -10000.00
01886              -6.00   -10000.00
01887              -6.00   -10000.00
01888              -8.00    -9800.00
01889              -6.00    -9600.00
01890              -4.00    -9400.00
01891              -2.00    -9400.00
01892              -8.00    -9400.00
01893              -6.00    -9200.00
01894              -8.00    -9000.00
01895              -6.00    -9000.00
01896              -4.00    -8800.00
01897              -2.00    -8600.00
01898              -4.00    -8600.00
01899              -8.00    -8600.00
01900              -6.00    -8200.00
01901              -6.00    -8200.00
01902              -4.00    -8000.00
01903              -2.00    -8000.00
01904              -6.00    -7800.00
01905              -6.00    -7600.00
01906              -6.00    -7600.00
01907              -6.00    -7400.00
01908              -2.00    -7400.00
01909              -6.00    -7000.00
01910              -2.00    -6800.00
01911              -2.00    -6800.00
01912              -6.00    -6600.00
01913              -6.00    -6600.00
01914              -6.00    -6200.00
01915              -2.00    -6000.00
01916              -2.00    -6000.00
01917              -4.00    -5800.00
01918              -6.00    -5800.00
01919              -4.00    -5400.00
01920              -2.00    -5200.00
01921              -4.00    -5200.00
01922              -2.00    -5000.00
01923              -2.00    -4600.00
01924              -2.00    -4600.00
01925              -6.00    -4400.00
01926              -6.00    -4000.00
01927              -2.00    -4000.00
01928              -6.00    -3800.00
01929              -2.00    -3600.00
01930              -2.00    -3400.00
01931              -6.00    -3400.00
01932              -2.00    -3000.00
01933              -6.00    -3000.00
01934              -2.00    -2800.00
01935              -2.00    -2600.00
01936               0.00    -2600.00
01937              -2.00    -2200.00
01938              -2.00    -2000.00
01939              -6.00    -1800.00
01940              -6.00    -1600.00
01941              -4.00    -1400.00
01942              -4.00    -1200.00
01943              -2.00    -1200.00
01944              -2.00    -1000.00
01945              -2.00     -600.00
01946              -6.00     -600.00
01947              -6.00     -400.00
01948              -2.00     -200.00
01949              -2.00        0.00
01950               0.00      200.00
01951               0.00      400.00
01952              16.00      600.00
01953              16.00      800.00
01954              -6.00     1000.00
01955              -6.00     1200.00
01956               6.00     1200.00
01957               8.00     1400.00
01958               8.00     1800.00
01959              90.00     1800.00
01960             214.00     2400.00
01961             -70.00     2400.00
01962            -254.00     2600.00
01963             -96.00     2800.00
01964              82.00     2800.00
01965             -70.00     2800.00
01966             240.00     3600.00
01967             -12.00     3200.00
01968            -254.00     3400.00
01969             246.00     4200.00
01970             -10.00     3600.00
01971            -112.00     4000.00
01972              82.00     4600.00
01973            -126.00     3800.00
01974             184.00     5000.00
01975             -34.00     5000.00
01976            -180.00     4400.00
01977             174.00     5600.00
01978             -56.00     5200.00
01979             -20.00     5200.00
01980              30.00     6000.00
01981             -30.00     5600.00
01982              50.00     6200.00
01983             -26.00     6600.00
01984              -8.00     6200.00
01985             -16.00     6600.00
01986              30.00     6800.00
01987             -24.00     6800.00
01988              18.00     7000.00
01989              14.00     7400.00
01990             -60.00     7200.00
01991              54.00     7800.00
01992             -16.00     7600.00
01993              -2.00     7600.00
01994              16.00     8200.00
01995             -22.00     8000.00
01996              10.00     8400.00
01997               2.00     8600.00
01998             -22.00     8400.00
01999              10.00     8800.00
02000              18.00     8800.00
02001             -24.00     9000.00
02002              16.00     9200.00
02003              -2.00     9000.00
02004             -10.00     9200.00
02005               8.00     9400.00
02006              -2.00     9600.00
02007              -2.00     9400.00
02008               6.00     9800.00
02009              -2.00     9800.00
02010              -8.00    10000.00
02011               6.00    10000.00
02012             -14.00    10000.00
02013              12.00    10200.00
02014               6.00    10200.00
02015             -10.00    10400.00
02016               2.00    10600.00
02017              -2.00    10600.00
02018             -10.00    10600.00
02019               0.00    10800.00
02020               0.00    11000.00
02021               0.00    11000.00
02022               2.00    11000.00
02023              -6.00    11200.00
02024              -2.00    11000.00
02025              -2.00    11400.00
02026              -2.00    11200.00
02027               2.00    11400.00
02028               2.00    11400.00
02029              -6.00    11400.00
02030              -4.00    11400.00
02031              -2.00    11600.00
02032              -6.00    11600.00
02033               2.00    11600.00
02034               6.00    11600.00
02035               0.00    11800.00
02036               0.00    11800.00
02037              -2.00    11800.00
02038              -2.00    11800.00
02039               0.00    11800.00
02040               0.00    11800.00
02041               2.00    11800.00
02042               2.00    11800.00
02043              -2.00    11800.00
02044              -2.00    11800.00
02045               2.00    11800.00
02046               0.00    11800.00
02047               0.00    11800.00
02048               2.00    11800.00
02049               0.00    11800.00
02050               0.00    11800.00
02051               0.00    11800.00
02052               0.00    11800.00
02053               4.00    11800.00
02054               0.00    11600.00
02055              -2.00    11600.00
02056               2.00    11600.00
02057              -2.00    11600.00
02058              -4.00    11600.00
02059               4.00    11400.00
02060               0.00    11400.00
02061              -2.00    11400.00
02062              -2.00    11400.00
02063               0.00    11400.00
02064               0.00    11200.00
02065               0.00    11200.00
02066              -2.00    11000.00
02067               0.00    11000.00
02068              -2.00    11000.00
02069               6.00    11000.00
02070              -4.00    10800.00
02071              -2.00    10800.00
02072              -2.00    10600.00
02073               0.00    10600.00
02074               0.00    10600.00
02075              -2.00    10400.00
02076               0.00    10400.00
02077               0.00    10200.00
02078              -2.00    10200.00
02079              -2.00    10200.00
02080               0.00     9800.00
02081               0.00     9800.00
02082               0.00     9600.00
02083              -2.00     9600.00
02084              -4.00     9600.00
02085              -2.00     9400.00
02086              -2.00     9200.00
02087               0.00     9200.00
02088               0.00     9000.00
02089               0.00     8800.00
02090              -2.00     8800.00
02091              -2.00     8600.00
02092              -6.00     8400.00
02093              -2.00     8200.00
02094               0.00     8200.00
02095               2.00     8000.00
02096              -6.00     7800.00
02097              -2.00     7800.00
02098              -6.00     7600.00
02099              -2.00     7600.00
02100               0.00     7400.00
02101              -2.00     7400.00
02102               0.00     7000.00
02103               0.00     7000.00
02104              -6.00     6600.00
02105              -2.00     6600.00
02106              -2.00     6600.00
02107              -2.00     6200.00
02108               0.00     6200.00
02109               0.00     6000.00
02110              -2.00     5800.00
02111              -2.00     5600.00
02112              -6.00     5200.00
02113               2.00     5200.00
02114               2.00     5000.00
02115               0.00     4600.00
02116              -2.00     4800.00
02117              -2.00     4600.00
02118              -4.00     4400.00
02119              -2.00     4200.00
02120              -2.00     4200.00
02121               0.00     3800.00
02122               0.00     3600.00
02123              -2.00     3400.00
02124              -2.00     3000.00
02125              -6.00     3200.00
02126              -6.00     2800.00
02127               2.00     2800.00
02128              -2.00     2600.00
02129              -2.00     2400.00
02130              -2.00     2200.00
02131              -6.00     1800.00
02132              -2.00     1800.00
02133              -2.00     1400.00
02134              -2.00     1400.00
02135               0.00     1200.00
02136              -6.00     1000.00
02137              -6.00      800.00
02138              -2.00      600.00
02139              -4.00      400.00
02140              -2.00      200.00
02141               0.00      200.00
02142               2.00     -200.00
02143              18.00     -200.00
02144              16.00     -400.00
02145              -8.00     -600.00
02146             -10.00     -800.00
02147               2.00    -1000.00
02148               8.00    -1200.00
02149              -2.00    -1400.00
02150              18.00    -1400.00
02151             102.00    -1800.00
02152             160.00    -2000.00
02153            -120.00    -2400.00
02154            -254.00    -2600.00
02155             -32.00    -2600.00
02156             112.00    -2800.00
02157            -116.00    -2800.00
02158             -22.00    -2800.00
02159             246.00    -3400.00
02160            -128.00    -3600.00
02161             -32.00    -3400.00
02162              86.00    -4200.00
02163             -38.00    -3800.00
02164              32.00    -4000.00
02165             -76.00    -4400.00
02166              50.00    -4600.00
02167              40.00    -4600.00
02168            -106.00    -5000.00
02169              42.00    -5000.00
02170             -10.00    -5200.00
02171             -10.00    -5800.00
02172              22.00    -5200.00
02173             -22.00    -5600.00
02174              16.00    -6000.00
02175             -16.00    -5800.00
02176               0.00    -6200.00
02177             -10.00    -6400.00
02178              14.00    -6200.00
02179              -8.00    -6800.00
02180             -16.00    -6800.00
02181              22.00    -7000.00
02182             -32.00    -7200.00
02183               6.00    -7400.00
02184               2.00    -7600.00
02185             -10.00    -7800.00
02186              14.00    -7800.00
02187             -16.00    -7800.00
02188              -6.00    -8200.00
02189               2.00    -8200.00
02190             -10.00    -8200.00
02191              -8.00    -8400.00
02192               8.00    -8600.00
02193             -14.00    -8800.00
02194              -8.00    -8800.00
02195               2.00    -9000.00
02196             -10.00    -9000.00
02197              -2.00    -9200.00
02198               0.00    -9200.00
02199              -6.00    -9400.00
02200              -6.00    -9400.00
02201              -6.00    -9400.00
02202             -10.00    -9800.00
02203               0.00    -9800.00
02204              -8.00    -9800.00
02205              -2.00   -10000.00
02206               2.00   -10000.00
02207             -10.00   -10200.00
02208              -8.00   -10200.00
02209              -4.00   -10400.00
02210              -8.00   -10600.00
02211              -6.00   -10600.00
02212              -2.00   -10600.00
02213              -6.00   -10600.00
02214              -6.00   -10800.00
02215              -6.00   -10800.00
02216              -8.00   -11000.00
02217              -2.00   -11000.00
02218              -4.00   -11000.00
02219              -8.00   -11000.00
02220              -2.00   -11400.00
02221              -8.00   -11400.00
02222              -8.00   -11400.00
02223              -2.00   -11400.00
02224              -8.00   -11400.00
02225              -6.00   -11400.00
02226              -6.00   -11400.00
02227              -6.00   -11400.00
02228              -4.00   -11400.00
02229              -6.00   -11400.00
02230              -8.00   -11600.00
02231              -4.00   -11600.00
02232              -2.00   -11600.00
02233              -8.00   -11600.00
02234              -4.00   -11600.00
02235              -6.00   -11800.00
02236              -8.00   -11600.00
02237              -2.00   -11600.00
02238              -4.00   -11600.00
02239              -2.00   -11600.00
02240              -2.00   -11400.00
02241              -6.00   -11400.00
02242              -6.00   -11600.00
02243              -6.00   -11600.00
02244              -2.00   -11400.00
02245              -6.00   -11400.00
02246              -4.00   -11400.00
02247              -4.00   -11400.00
02248              -6.00   -11400.00
02249              -6.00   -11400.00
02250              -2.00   -11400.00
02251              -6.00   -11200.00
02252              -2.00   -11000.00
02253              -2.00   -11000.00
02254              -2.00   -11200.00
02255              -6.00   -11000.00
02256              -6.00   -11000.00
02257              -6.00   -10800.00
02258              -2.00   -10600.00
02259              -2.00   -10800.00
02260              -2.00   -10800.00
02261              -6.00   -10400.00
02262              -4.00   -10600.00
02263              -8.00   -10400.00
02264              -6.00   -10200.00
02265              -2.00   -10200.00
02266              -2.00   -10200.00
02267              -6.00   -10000.00
02268              -6.00   -10000.00
02269              -8.00   -10000.00
02270              -8.00    -9800.00
02271              -6.00    -9600.00
02272              -2.00    -9600.00
02273              -4.00    -9400.00
02274              -6.00    -9400.00
02275              -6.00    -9200.00
02276              -8.00    -9000.00
02277              -6.00    -9000.00
02278              -2.00    -8800.00
02279              -4.00    -8600.00
02280              -6.00    -8600.00
02281              -6.00    -8600.00
02282              -6.00    -8400.00
02283              -8.00    -8200.00
02284              -4.00    -8200.00
02285              -6.00    -7800.00
02286              -4.00    -7800.00
02287              -6.00    -7600.00
02288              -6.00    -7600.00
02289              -8.00    -7600.00
02290              -6.00    -7400.00
02291              -6.00    -7200.00
02292              -2.00    -6800.00
02293              -6.00    -6800.00
02294              -6.00    -6600.00
02295              -6.00    -6400.00
02296              -6.00    -6200.00
02297              -2.00    -6000.00
02298              -6.00    -6000.00
02299              -2.00    -6000.00
02300              -2.00    -5800.00
02301              -6.00    -5600.00
02302              -8.00    -5400.00
02303              -2.00    -5200.00
02304              -2.00    -5000.00
02305              -2.00    -5000.00
02306              -2.00    -4600.00
02307              -2.00    -4400.00
02308              -6.00    -4000.00
02309              -6.00    -3800.00
02310              -6.00    -3800.00
02311              -2.00    -3600.00
02312               0.00    -3600.00
02313              -2.00    -3400.00
02314              -4.00    -3400.00
02315              -4.00    -3000.00
02316              -6.00    -3000.00
02317              -6.00    -2600.00
02318              -2.00    -2600.00
02319              -2.00    -2200.00
02320              -2.00    -2000.00
02321              -2.00    -1800.00
02322              -2.00    -1800.00
02323              -4.00    -1400.00
02324              -2.00    -1200.00
02325              -2.00    -1200.00
02326              -2.00    -1000.00
02327              -2.00     -600.00
02328              -2.00     -600.00
02329              -2.00     -400.00
02330              -6.00     -200.00
02331              -2.00        0.00
02332              -2.00      200.00
02333               0.00      400.00
02334               8.00      400.00
02335              18.00      600.00
02336              -2.00     1000.00
02337              -6.00     1000.00
02338               2.00     1200.00
02339              10.00     1400.00
02340               4.00     1400.00
02341              50.00     1800.00
02342             200.00     2200.00
02343              60.00     2600.00
02344            -254.00     2400.00
02345            -194.00     2800.00
02346              80.00     2800.00
02347             -50.00     2600.00
02348             128.00     3400.00
02349             168.00     3400.00
02350            -254.00     3200.00
02351             134.00     3800.00
02352             150.00     3800.00
02353            -182.00     3800.00
02354              88.00     4800.00
02355             -96.00     4200.00
02356              78.00     4600.00
02357             120.00     5200.00
02358            -242.00     4400.00
02359             114.00     5400.00
02360              40.00     5400.00
02361             -80.00     5000.00
02362              56.00     6200.00
02363             -40.00     5800.00
02364              40.00     5800.00
02365              -4.00     6600.00
02366             -22.00     6200.00
02367             -16.00     6400.00
02368              16.00     6800.00
02369               0.00     6800.00
02370             -14.00     7000.00
02371              42.00     7400.00
02372             -64.00     7200.00
02373              26.00     7400.00
02374              18.00     7800.00
02375             -26.00     7600.00
02376              30.00     8200.00
02377             -22.00     8200.00
02378               4.00     8200.00
02379              10.00     8600.00
02380             -16.00     8600.00
02381             -10.00     8600.00
02382              30.00     9000.00
02383             -16.00     8800.00
02384               4.00     9000.00
02385              14.00     9200.00
02386             -16.00     9200.00
02387               6.00     9400.00
02388               0.00     9600.00
02389               0.00     9400.00
02390               4.00     9800.00
02391               6.00    10000.00
02392             -10.00     9800.00
02393               6.00    10000.00
02394              -8.00    10000.00
02395               2.00    10200.00
02396              14.00    10200.00
02397              -8.00    10400.00
02398              -4.00    10600.00
02399               2.00    10600.00
02400              -8.00    10600.00
02401              -2.00    10800.00
02402               2.00    10800.00
02403              -2.00    10800.00
02404               6.00    11000.00
02405              -2.00    11200.00
02406              -2.00    11000.00
02407               0.00    11200.00
02408              -6.00    11200.00
02409               0.00    11200.00
02410               6.00    11400.00
02411              -2.00    11400.00
02412              -6.00    11400.00
02413              -2.00    11600.00
02414              -2.00    11600.00
02415               0.00    11600.00
02416               2.00    11600.00
02417               0.00    11800.00
02418               0.00    11800.00
02419              -2.00    11800.00
02420              -2.00    11600.00
02421               0.00    11800.00
02422               0.00    11800.00
02423               0.00    11800.00
02424               0.00    11800.00
02425               0.00    11800.00
02426              -2.00    11800.00
02427               0.00    11800.00
02428               0.00    11800.00
02429               2.00    11800.00
02430               0.00    11800.00
02431              -2.00    11800.00
02432               0.00    11800.00
02433              -2.00    11600.00
02434              -2.00    11800.00
02435               2.00    11600.00
02436               2.00    11600.00
02437               0.00    11800.00
02438               0.00    11800.00
02439              -2.00    11600.00
02440              -2.00    11600.00
02441               0.00    11600.00
02442               0.00    11400.00
02443               0.00    11400.00
02444               0.00    11600.00
02445               0.00    11400.00
02446              -2.00    11400.00
02447               0.00    11200.00
02448               0.00    11200.00
02449               2.00    11000.00
02450               0.00    11000.00
02451               0.00    11000.00
02452              -2.00    10800.00
02453              -2.00    10800.00
02454               0.00    10600.00
02455               0.00    10600.00
02456               0.00    10600.00
02457               0.00    10600.00
02458              -2.00    10200.00
02459              -4.00    10200.00
02460              -2.00    10200.00
02461              -2.00    10000.00
02462               0.00    10000.00
02463               0.00     9800.00
02464              -2.00     9800.00
02465               0.00     9600.00
02466              -2.00     9400.00
02467              -2.00     9400.00
02468               0.00     9200.00
02469              -2.00     9200.00
02470              -2.00     9000.00
02471              -2.00     9000.00
02472              -2.00     8800.00
02473              -2.00     8800.00
02474              -2.00     8600.00
02475              -2.00     8400.00
02476              -2.00     8200.00
02477              -2.00     8200.00
02478              -2.00     7800.00
02479              -2.00     7800.00
02480              -4.00     7600.00
02481              -2.00     7400.00
02482               0.00     7400.00
02483               0.00     7400.00
02484              -4.00     7000.00
02485              -2.00     6800.00
02486              -2.00     6800.00
02487              -4.00     6600.00
02488              -6.00     6600.00
02489              -2.00     6200.00
02490              -2.00     6200.00
02491              -2.00     6000.00
02492              -2.00     5800.00
02493              -2.00     5800.00
02494              -6.00     5400.00
02495              -2.00     5400.00
02496              -2.00     5000.00
02497              -2.00     5000.00
02498              -6.00     4600.00
02499              -2.00     4600.00
02500              -4.00     4400.00
02501              -2.00     4200.00
02502              -2.00     4000.00
02503               0.00     3800.00
02504              -2.00     3800.00
02505              -2.00     3600.00
02506               0.00     3200.00
02507              -6.00     3000.00
02508              -2.00     3000.00
02509               0.00     2800.00
02510              -2.00     2600.00
02511              -2.00     2400.00
02512              -4.00     2200.00
02513              -2.00     2000.00
02514              -2.00     1800.00
02515              -2.00     1600.00
02516              -2.00     1400.00
02517               0.00     1200.00
02518              -2.00     1200.00
02519              -6.00     1000.00
02520              -2.00      800.00
02521               0.00      400.00
02522               0.00      200.00
02523               0.00      200.00
02524               0.00     -200.00
02525              10.00     -200.00
02526              18.00     -200.00
02527              -2.00     -600.00
02528             -10.00    -1000.00
02529               0.00    -1000.00
02530               6.00    -1200.00
02531              -2.00    -1400.00
02532               6.00    -1400.00
02533              66.00    -1400.00
02534             174.00    -2000.00
02535             -10.00    -2200.00
02536            -254.00    -2600.00
02537            -122.00    -2600.00
02538             114.00    -2800.00
02539             -42.00    -2800.00
02540            -120.00    -2800.00
02541             230.00    -3000.00
02542              -2.00    -3600.00
02543            -126.00    -3400.00
02544             104.00    -3800.00
02545             -24.00    -4000.00
02546              16.00    -3800.00
02547             -40.00    -4400.00
02548             -22.00    -4600.00
02549              94.00    -4400.00
02550             -98.00    -5000.00
02551               0.00    -5200.00
02552              26.00    -4800.00
02553             -40.00    -5600.00
02554              32.00    -5400.00
02555             -18.00    -5400.00
02556              12.00    -6200.00
02557              -6.00    -5800.00
02558              -8.00    -6200.00
02559              -8.00    -6600.00
02560               0.00    -6200.00
02561               6.00    -6600.00
02562             -26.00    -6800.00
02563              22.00    -7000.00
02564             -20.00    -7400.00
02565             -14.00    -7400.00
02566              14.00    -7400.00
02567             -16.00    -7600.00
02568              10.00    -7800.00
02569              -2.00    -7800.00
02570             -14.00    -8200.00
02571               6.00    -8200.00
02572              -8.00    -8400.00
02573             -10.00    -8400.00
02574               8.00    -8400.00
02575              -2.00    -8800.00
02576             -10.00    -8800.00
02577               4.00    -9000.00
02578             -10.00    -9000.00
02579              -8.00    -9200.00
02580               2.00    -9200.00
02581              -2.00    -9400.00
02582              -2.00    -9400.00
02583               0.00    -9400.00
02584             -10.00    -9800.00
02585              -2.00    -9800.00
02586              -2.00   -10000.00
02587              -8.00   -10000.00
02588               2.00   -10000.00
02589              -2.00   -10200.00
02590             -10.00   -10400.00
02591              -2.00   -10400.00
02592              -8.00   -10400.00
02593              -8.00   -10600.00
02594              -2.00   -10600.00
02595              -2.00   -10400.00
02596              -6.00   -10800.00
02597              -6.00   -10800.00
02598              -8.00   -11000.00
02599              -6.00   -11000.00
02600              -6.00   -11000.00
02601             -10.00   -11000.00
02602              -2.00   -11000.00
02603              -4.00   -11000.00
02604             -10.00   -11000.00
02605              -8.00   -11400.00
02606              -6.00   -11400.00
02607              -6.00   -11400.00
02608              -4.00   -11400.00
02609              -8.00   -11400.00
02610              -6.00   -11600.00
02611              -8.00   -11600.00
02612              -8.00   -11600.00
02613              -6.00   -11600.00
02614              -2.00   -11600.00
02615              -6.00   -11600.00
02616              -2.00   -11600.00
02617              -6.00   -11600.00
02618              -8.00   -11600.00
02619              -6.00   -11600.00
02620              -2.00   -11400.00
02621              -6.00   -11600.00
02622              -2.00   -11600.00
02623              -4.00   -11600.00
02624              -6.00   -11600.00
02625              -8.00   -11400.00
02626              -8.00   -11400.00
02627              -2.00   -11400.00
02628              -2.00   -11400.00
02629              -2.00   -11400.00
02630              -8.00   -11400.00
02631              -4.00   -11400.00
02632              -8.00   -11200.00
02633              -2.00   -11400.00
02634              -2.00   -11200.00
02635              -6.00   -11000.00
02636              -2.00   -11000.00
02637              -6.00   -11200.00
02638              -6.00   -10800.00
02639              -6.00   -11000.00
02640              -2.00   -10800.00
02641              -2.00   -10800.00
02642              -2.00   -10400.00
02643              -8.00   -10600.00
02644              -6.00   -10400.00
02645              -2.00   -10400.00
02646              -6.00   -10200.00
02647              -6.00   -10200.00
02648              -2.00   -10000.00
02649              -4.00   -10000.00
02650              -6.00   -10000.00
02651              -6.00    -9800.00
02652              -6.00    -9800.00
02653              -2.00    -9800.00
02654              -6.00    -9600.00
02655              -2.00    -9400.00
02656              -6.00    -9400.00
02657              -6.00    -9200.00
02658              -8.00    -9200.00
02659              -6.00    -9000.00
02660              -4.00    -9000.00
02661              -2.00    -8600.00
02662              -8.00    -8600.00
02663              -8.00    -8600.00
02664              -4.00    -8600.00
02665             -10.00    -8200.00
02666              -6.00    -8200.00
02667              -6.00    -8000.00
02668              -2.00    -7800.00
02669              -2.00    -7800.00
02670              -6.00    -7600.00
02671              -8.00    -7600.00
02672              -8.00    -7400.00
02673              -8.00    -7200.00
02674              -2.00    -7000.00
02675              -6.00    -6800.00
02676              -8.00    -6800.00
02677              -8.00    -6600.00
02678              -8.00    -6600.00
02679              -6.00    -6200.00
02680              -6.00    -6000.00
02681              -4.00    -5800.00
02682              -2.00    -5800.00
02683              -6.00    -5600.00
02684              -6.00    -5400.00
02685              -6.00    -5200.00
02686              -6.00    -5200.00
02687              -2.00    -4800.00
02688              -4.00    -4600.00
02689              -6.00    -4400.00
02690              -2.00    -4000.00
02691              -6.00    -4000.00
02692              -4.00    -4000.00
02693              -2.00    -3600.00
02694              -2.00    -3600.00
02695              -2.00    -3400.00
02696              -6.00    -3200.00
02697              -2.00    -3000.00
02698              -6.00    -2800.00
02699              -6.00    -2800.00
02700              -2.00    -2600.00
02701              -2.00    -2400.00
02702              -2.00    -2200.00
02703              -2.00    -2000.00
02704              -6.00    -2000.00
02705              -6.00    -1800.00
02706              -2.00    -1400.00
02707              -2.00    -1200.00
02708              -2.00    -1000.00
02709              -2.00    -1000.00
02710              -4.00     -600.00
02711              -2.00     -600.00
02712              -4.00     -200.00
02713              -2.00     -200.00
02714               0.00      200.00
02715               0.00      400.00
02716               6.00      600.00
02717              20.00      600.00
02718               6.00     1000.00
02719              -6.00     1000.00
02720              -2.00     1200.00
02721               8.00     1200.00
02722               6.00     1400.00
02723              24.00     1800.00
02724             154.00     2000.00
02725             162.00     2400.00
02726            -222.00     2400.00
02727            -254.00     2600.00
02728              18.00     2800.00
02729              16.00     2800.00
02730               8.00     3000.00
02731             246.00     3400.00
02732            -234.00     3000.00
02733             -56.00     3600.00
02734             246.00     4200.00
02735            -162.00     3600.00
02736              18.00     4400.00
02737             -10.00     4400.00
02738             -46.00     4200.00
02739             206.00     5200.00
02740            -202.00     4600.00
02741             -16.00     5000.00
02742             134.00     5800.00
02743            -112.00     5000.00
02744              46.00     5800.00
02745             -18.00     6000.00
02746              10.00     5600.00
02747              24.00     6200.00
02748             -26.00     6400.00
02749              -8.00     6200.00
02750              -2.00     6800.00
02751              22.00     6800.00
02752             -32.00     6800.00
02753              48.00     7200.00
02754             -40.00     7400.00
02755             -16.00     7400.00
02756              50.00     7800.00
02757             -40.00     7600.00
02758              22.00     7800.00
02759              -6.00     8200.00
02760             -10.00     8200.00
02761              16.00     8400.00
02762              -6.00     8600.00
02763             -22.00     8400.00
02764              26.00     8800.00
02765              -2.00     8800.00
02766             -14.00     9000.00
02767              20.00     9200.00
02768             -16.00     9400.00
02769               0.00     9400.00
02770               4.00     9400.00
02771               0.00     9600.00
02772               2.00     9400.00
02773               8.00     9800.00
02774              -8.00     9800.00
02775               2.00    10000.00
02776               0.00    10000.00
02777              -6.00    10000.00
02778              16.00    10600.00
02779              -2.00    10400.00
02780              -6.00    10200.00
02781               6.00    10600.00
02782              -6.00    10800.00
02783              -2.00    10600.00
02784               6.00    10800.00
02785               0.00    10800.00
02786               2.00    11000.00
02787               0.00    11200.00
02788              -6.00    11000.00
02789               0.00    11000.00
02790               0.00    11400.00
02791              -2.00    11200.00
02792               6.00    11400.00
02793               0.00    11600.00
02794              -2.00    11600.00
02795               0.00    11600.00
02796              -2.00    11600.00
02797              -2.00    11600.00
02798               2.00    11600.00
02799               0.00    11600.00
02800               0.00    11600.00
02801               0.00    11800.00
02802              -4.00    11600.00
02803               0.00    11800.00
02804               0.00    11800.00
02805               0.00    11600.00
02806               0.00    11800.00
02807              -2.00    11800.00
02808              -2.00    11800.00
02809              -2.00    11800.00
02810              -2.00    11800.00
02811               0.00    11800.00
02812               0.00    11800.00
02813               0.00    11800.00
02814               0.00    11800.00
02815              -2.00    11800.00
02816              -2.00    11800.00
02817               2.00    11800.00
02818               0.00    11600.00
02819               0.00    11600.00
02820               0.00    11600.00
02821              -2.00    11600.00
02822              -2.00    11400.00
02823              -2.00    11600.00
02824               0.00    11600.00
02825               0.00    11400.00
02826               0.00    11400.00
02827              -2.00    11400.00
02828               0.00    11400.00
02829              -4.00    11200.00
02830              -2.00    11000.00
02831               2.00    11000.00
02832               0.00    11000.00
02833               0.00    11000.00
02834              -2.00    10800.00
02835              -2.00    10800.00
02836               0.00    10800.00
02837              -2.00    10800.00
02838               0.00    10600.00
02839               0.00    10600.00
02840               0.00    10200.00
02841              -2.00    10400.00
02842              -2.00    10200.00
02843              -2.00    10000.00
02844               0.00    10000.00
02845               0.00     9800.00
02846               0.00     9800.00
02847               0.00     9600.00
02848              -2.00     9600.00
02849              -2.00     9400.00
02850              -2.00     9400.00
02851              -2.00     9200.00
02852               0.00     9000.00
02853              -2.00     9000.00
02854              -4.00     9000.00
02855              -6.00     8600.00
02856              -2.00     8800.00
02857              -2.00     8400.00
02858               0.00     8400.00
02859              -2.00     8200.00
02860              -2.00     8200.00
02861              -6.00     7800.00
02862              -2.00     7600.00
02863              -4.00     7600.00
02864               0.00     7400.00
02865               0.00     7200.00
02866              -2.00     7200.00
02867              -2.00     7000.00
02868              -2.00     6800.00
02869              -6.00     6600.00
02870              -2.00     6600.00
02871              -2.00     6400.00
02872               0.00     6200.00
02873              -2.00     6000.00
02874              -4.00     5800.00
02875              -2.00     5600.00
02876              -6.00     5400.00
02877              -2.00     5400.00
02878               0.00     5200.00
02879              -2.00     5000.00
02880              -2.00     4600.00
02881               0.00     4600.00
02882              -4.00     4400.00
02883              -2.00     4200.00
02884              -4.00     4000.00
02885               0.00     3800.00
02886              -6.00     3800.00
02887              -2.00     3600.00
02888              -6.00     3400.00
02889              -2.00     3200.00
02890              -2.00     3000.00
02891              -2.00     2800.00
02892              -2.00     2600.00
02893              -2.00     2600.00
02894              -6.00     2400.00
02895              -2.00     2200.00
02896              -2.00     1800.00
02897              -2.00     1600.00
02898               0.00     1400.00
02899               0.00     1200.00
02900              -4.00     1000.00
02901              -6.00     1000.00
02902              -2.00      600.00
02903              -2.00      600.00
02904               0.00      400.00
02905              -2.00      200.00
02906              -2.00        0.00
02907               6.00     -200.00
02908              24.00     -400.00
02909               8.00     -400.00
02910             -10.00     -800.00
02911              -4.00    -1000.00
02912               8.00    -1000.00
02913               6.00    -1200.00
02914               0.00    -1400.00
02915              38.00    -1600.00
02916             154.00    -1800.00
02917              88.00    -2200.00
02918            -222.00    -2400.00
02919            -198.00    -2600.00
02920              70.00    -2600.00
02921              40.00    -3000.00
02922            -160.00    -2800.00
02923             136.00    -3000.00
02924             144.00    -3400.00
02925            -184.00    -3400.00
02926              74.00    -3600.00
02927              26.00    -4200.00
02928             -14.00    -3800.00
02929               6.00    -4200.00
02930             -74.00    -4400.00
02931             106.00    -4400.00
02932             -48.00    -4800.00
02933             -56.00    -5200.00
02934              50.00    -5000.00
02935             -42.00    -5400.00
02936              22.00    -5800.00
02937              -6.00    -5200.00
02938              -6.00    -5800.00
02939               6.00    -6000.00
02940             -16.00    -6000.00
02941              -2.00    -6600.00
02942             -10.00    -6400.00
02943              12.00    -6600.00
02944             -24.00    -6800.00
02945               6.00    -7000.00
02946               2.00    -7200.00
02947             -30.00    -7400.00
02948              18.00    -7400.00
02949             -10.00    -7600.00
02950               2.00    -7800.00
02951               8.00    -7600.00
02952             -22.00    -8200.00
02953               2.00    -8200.00
02954              -4.00    -8200.00
02955             -14.00    -8400.00
02956               0.00    -8400.00
02957               6.00    -8600.00
02958             -14.00    -8600.00
02959               0.00    -9000.00
02960              -6.00    -9000.00
02961             -14.00    -9200.00
02962               2.00    -9200.00
02963               0.00    -9400.00
02964              -6.00    -9400.00
02965               0.00    -9400.00
02966              -8.00    -9600.00
02967              -6.00    -9800.00
02968              -2.00    -9800.00
02969             -10.00   -10000.00
02970               0.00   -10000.00
02971               0.00   -10000.00
02972             -12.00   -10200.00
02973              -2.00   -10400.00
02974              -6.00   -10200.00
02975              -6.00   -10400.00
02976              -2.00   -10600.00
02977              -2.00   -10600.00
02978              -4.00   -10800.00
02979              -2.00   -10800.00
02980              -8.00   -11000.00
02981              -8.00   -10800.00
02982              -2.00   -11000.00
02983              -8.00   -11000.00
02984              -2.00   -11200.00
02985              -2.00   -11200.00
02986              -8.00   -11400.00
02987             -10.00   -11400.00
02988              -8.00   -11400.00
02989              -4.00   -11600.00
02990              -2.00   -11400.00
02991              -6.00   -11600.00
02992              -6.00   -11600.00
02993              -6.00   -11600.00
02994              -8.00   -11600.00
02995              -8.00   -11600.00
02996              -2.00   -11600.00
02997              -2.00   -11600.00
02998              -6.00   -11800.00
02999              -6.00   -11600.00
03000              -6.00   -11600.00
03001              -8.00   -11600.00
03002              -6.00   -11600.00
03003              -2.00   -11600.00
03004              -6.00   -11600.00
03005              -8.00   -11600.00
03006              -8.00   -11600.00
03007              -6.00   -11600.00
03008              -8.00   -11400.00
03009              -6.00   -11400.00
03010              -4.00   -11400.00
03011              -2.00   -11400.00
03012              -8.00   -11400.00
03013              -8.00   -11400.00
03014              -8.00   -11400.00
03015              -6.00   -11400.00
03016              -6.00   -11200.00
03017              -6.00   -11000.00
03018              -2.00   -11000.00
03019              -6.00   -11000.00
03020              -6.00   -11000.00
03021              -8.00   -10800.00
03022              -6.00   -10800.00
03023              -6.00   -10800.00
03024              -2.00   -10400.00
03025              -8.00   -10800.00
03026              -6.00   -10400.00
03027              -6.00   -10400.00
03028              -4.00   -10400.00
03029              -6.00   -10200.00
03030               0.00   -10200.00
03031              -2.00   -10000.00
03032              -2.00   -10000.00
03033              -8.00   -10000.00
03034              -6.00    -9800.00
03035              -8.00    -9800.00
03036              -2.00    -9600.00
03037              -2.00    -9400.00
03038              -4.00    -9400.00
03039              -8.00    -9200.00
03040              -6.00    -9200.00
03041              -6.00    -9000.00
03042              -6.00    -9000.00
03043              -4.00    -8600.00
03044              -2.00    -8600.00
03045              -2.00    -8600.00
03046              -8.00    -8400.00
03047              -6.00    -8400.00
03048              -6.00    -8200.00
03049              -4.00    -8200.00
03050              -4.00    -8000.00
03051              -6.00    -7800.00
03052              -6.00    -7800.00
03053              -6.00    -7400.00
03054              -8.00    -7400.00
03055              -6.00    -7400.00
03056              -6.00    -7000.00
03057              -2.00    -6800.00
03058              -6.00    -6800.00
03059              -6.00    -6600.00
03060              -6.00    -6600.00
03061              -8.00    -6200.00
03062              -6.00    -6000.00
03063              -6.00    -6000.00
03064              -4.00    -5800.00
03065              -8.00    -5600.00
03066              -6.00    -5400.00
03067              -8.00    -5200.00
03068              -6.00    -5000.00
03069              -6.00    -5000.00
03070              -6.00    -5000.00
03071              -6.00    -4600.00
03072              -4.00    -4400.00
03073              -6.00    -4400.00
03074              -6.00    -4000.00
03075              -6.00    -3800.00
03076              -2.00    -3600.00
03077              -2.00    -3600.00
03078              -2.00    -3400.00
03079              -2.00    -3000.00
03080              -4.00    -3000.00
03081              -2.00    -2800.00
03082              -4.00    -2600.00
03083              -2.00    -2200.00
03084              -4.00    -2200.00
03085              -2.00    -2000.00
03086              -2.00    -1800.00
03087              -2.00    -1800.00
03088              -2.00    -1400.00
03089              -2.00    -1200.00
03090              -2.00    -1000.00
03091              -2.00    -1000.00
03092              -2.00     -600.00
03093              -2.00     -600.00
03094              -2.00     -400.00
03095              -2.00     -200.00
03096               0.00      200.00
03097               2.00      200.00
03098               2.00      400.00
03099              18.00      600.00
03100              14.00      800.00
03101              -2.00     1000.00
03102              -2.00     1200.00
03103               8.00     1200.00
03104               6.00     1200.00
03105              14.00     1800.00
03106             102.00     2000.00
03107             214.00     2400.00
03108            -102.00     2400.00
03109            -254.00     2600.00
03110             -72.00     2800.00
03111              78.00     2800.00
03112             -64.00     2800.00
03113             246.00     3400.00
03114             -62.00     3200.00
03115            -230.00     3400.00
03116             246.00     4200.00
03117             -48.00     3600.00
03118             -88.00     4200.00
03119              70.00     4600.00
03120            -118.00     3800.00
03121             202.00     5000.00
03122             -72.00     4800.00
03123            -152.00     4600.00
03124             176.00     5600.00
03125             -74.00     5000.00
03126              -6.00     5400.00
03127              22.00     6000.00
03128             -24.00     5400.00
03129              48.00     6200.00
03130             -30.00     6400.00
03131             -10.00     6200.00
03132             -16.00     6600.00
03133              32.00     6800.00
03134             -30.00     6600.00
03135              24.00     7000.00
03136               4.00     7400.00
03137             -54.00     7000.00
03138              56.00     7800.00
03139             -22.00     7600.00
03140               2.00     7800.00
03141              14.00     8200.00
03142             -20.00     8200.00
03143              12.00     8400.00
03144               2.00     8800.00
03145             -26.00     8400.00
03146              10.00     8800.00
03147              16.00     8800.00
03148             -22.00     8800.00
03149              18.00     9200.00
03150              -6.00     9200.00
03151             -10.00     9200.00
03152               8.00     9400.00
03153               0.00     9800.00
03154               0.00     9400.00
03155               8.00     9800.00
03156              -2.00     9800.00
03157              -8.00    10000.00
03158               6.00    10200.00
03159             -10.00    10200.00
03160              14.00    10200.00
03161               6.00    10400.00
03162             -10.00    10400.00
03163               2.00    10600.00
03164               0.00    10800.00
03165              -6.00    10600.00
03166               6.00    10800.00
03167               0.00    11000.00
03168               0.00    11000.00
03169               6.00    11000.00
03170              -4.00    11000.00
03171               0.00    11200.00
03172               2.00    11200.00
03173              -2.00    11200.00
03174               6.00    11400.00
03175               4.00    11400.00
03176              -4.00    11600.00
03177               0.00    11600.00
03178              -2.00    11600.00
03179              -6.00    11600.00
03180               2.00    11600.00
03181               0.00    11800.00
03182               0.00    11600.00
03183              -2.00    11600.00
03184              -6.00    11800.00
03185              -2.00    11800.00
03186               0.00    11800.00
03187              -2.00    11800.00
03188               2.00    11800.00
03189               0.00    11800.00
03190              -6.00    11800.00
03191              -2.00    11800.00
03192               0.00    11800.00
03193               0.00    11800.00
03194               0.00    11800.00
03195               0.00    12200.00
03196              -2.00    11800.00
03197               0.00    11800.00
03198              -4.00    11800.00
03199               0.00    11600.00
03200               2.00    11800.00
03201               0.00    11600.00
03202               2.00    11800.00
03203               0.00    11600.00
03204              -6.00    11600.00
03205               0.00    11400.00
03206               0.00    11600.00
03207               2.00    11400.00
03208               0.00    11400.00
03209               0.00    11400.00
03210              -2.00    11400.00
03211              -2.00    11400.00
03212              -2.00    11200.00
03213               0.00    11000.00
03214               2.00    11000.00
03215               0.00    10800.00
03216               0.00    11000.00
03217              -2.00    11000.00
03218              -2.00    10800.00
03219               0.00    10600.00
03220               0.00    10600.00
03221               0.00    10600.00
03222               0.00    10600.00
03223               0.00    10200.00
03224              -2.00    10000.00
03225              -2.00    10200.00
03226              -2.00     9800.00
03227               0.00    10000.00
03228               0.00     9800.00
03229               0.00     9600.00
03230              -2.00     9600.00
03231               0.00     9400.00
03232               0.00     9400.00
03233              -2.00     9200.00
03234               0.00     9200.00
03235               0.00     9000.00
03236               0.00     9000.00
03237              -2.00     9000.00
03238               0.00     8600.00
03239               0.00     8400.00
03240              -2.00     8400.00
03241               0.00     8200.00
03242               0.00     8200.00
03243              -2.00     7800.00
03244              -2.00     7800.00
03245              -4.00     7600.00
03246              -2.00     7400.00
03247               0.00     7200.00
03248              -2.00     7000.00
03249              -2.00     7000.00
03250              -2.00     6800.00
03251              -2.00     6600.00
03252              -2.00     6600.00
03253              -2.00     6200.00
03254               0.00     6200.00
03255              -2.00     6000.00
03256              -2.00     6000.00
03257              -6.00     5800.00
03258              -2.00     5400.00
03259              -2.00     5200.00
03260               0.00     5000.00
03261              -2.00     5000.00
03262              -2.00     4800.00
03263              -2.00     4600.00
03264              -4.00     4400.00
03265              -6.00     4400.00
03266              -2.00     4200.00
03267              -2.00     3800.00
03268              -2.00     3600.00
03269              -2.00     3600.00
03270              -2.00     3600.00
03271              -6.00     3400.00
03272              -2.00     3000.00
03273              -2.00     3000.00
03274              -2.00     2600.00
03275               0.00     2400.00
03276              -2.00     2400.00
03277              -4.00     2200.00
03278              -2.00     2000.00
03279              -4.00     1800.00
03280              -2.00     1400.00
03281              -2.00     1400.00
03282              -2.00     1200.00
03283              -2.00     1000.00
03284              -2.00     1000.00
03285              -2.00      600.00
03286               0.00      400.00
03287               0.00      200.00
03288               0.00        0.00
03289               2.00     -200.00
03290              18.00     -200.00
03291              14.00     -600.00
03292              -8.00     -600.00
03293              -6.00    -1000.00
03294               6.00    -1200.00
03295               6.00    -1400.00
03296               0.00    -1400.00
03297              22.00    -1400.00
03298             116.00    -1800.00
03299             158.00    -2000.00
03300            -144.00    -2600.00
03301            -248.00    -2600.00
03302              -6.00    -2600.00
03303             102.00    -2800.00
03304            -132.00    -3000.00
03305              14.00    -3000.00
03306             240.00    -3400.00
03307            -150.00    -3400.00
03308              -2.00    -3400.00
03309              74.00    -4000.00
03310             -38.00    -3800.00
03311              32.00    -4200.00
03312             -78.00    -4400.00
03313              66.00    -4400.00
03314              24.00    -4600.00
03315             -98.00    -5000.00
03316              48.00    -5000.00
03317             -18.00    -5000.00
03318              -2.00    -5800.00
03319              18.00    -5400.00
03320             -20.00    -5800.00
03321              16.00    -6000.00
03322             -18.00    -5800.00
03323               0.00    -6200.00
03324             -14.00    -6400.00
03325              10.00    -6200.00
03326             -10.00    -6800.00
03327             -10.00    -6800.00
03328              18.00    -7000.00
03329             -38.00    -7200.00
03330               8.00    -7400.00
03331              -2.00    -7400.00
03332              -6.00    -7600.00
03333              10.00    -7800.00
03334             -16.00    -7800.00
03335              -8.00    -8200.00
03336               0.00    -8200.00
03337             -10.00    -8400.00
03338              -8.00    -8600.00
03339              10.00    -8600.00
03340             -12.00    -9000.00
03341              -6.00    -9000.00
03342               2.00    -9000.00
03343             -14.00    -9200.00
03344              -2.00    -9200.00
03345               0.00    -9400.00
03346              -6.00    -9400.00
03347              -2.00    -9400.00
03348              -6.00    -9600.00
03349             -10.00    -9800.00
03350               0.00    -9800.00
03351              -8.00   -10000.00
03352              -4.00   -10000.00
03353               6.00   -10000.00
03354             -10.00   -10200.00
03355              -8.00   -10400.00
03356               0.00   -10600.00
03357              -8.00   -10400.00
03358              -2.00   -10600.00
03359               0.00   -10600.00
03360              -2.00   -10600.00
03361              -2.00   -11000.00
03362              -6.00   -10800.00
03363             -10.00   -11000.00
03364               0.00   -11000.00
03365              -2.00   -11000.00
03366              -4.00   -11000.00
03367               0.00   -11200.00
03368              -6.00   -11200.00
03369              -8.00   -11200.00
03370              -2.00   -11400.00
03371              -6.00   -11400.00
03372              -2.00   -11400.00
03373              -2.00   -11600.00
03374              -6.00   -11600.00
03375              -8.00   -11400.00
03376              -8.00   -11600.00
03377             -10.00   -11600.00
03378              -2.00   -11600.00
03379              -2.00   -11600.00
03380              -6.00   -11600.00
03381              -2.00   -11600.00
03382              -8.00   -11600.00
03383              -8.00   -11600.00
03384              -8.00   -11600.00
03385              -6.00   -11600.00
03386              -6.00   -11600.00
03387              -2.00   -11600.00
03388              -6.00   -11600.00
03389              -8.00   -11400.00
03390              -8.00   -11600.00
03391              -6.00   -11400.00
03392              -6.00   -11600.00
03393              -2.00   -11400.00
03394              -2.00   -11400.00
03395              -6.00   -11400.00
03396              -8.00   -11400.00
03397              -8.00   -11400.00
03398              -6.00   -11200.00
03399              -6.00   -11200.00
03400              -6.00   -11000.00
03401              -2.00   -11000.00
03402              -6.00   -11000.00
03403              -4.00   -11000.00
03404              -8.00   -10800.00
03405              -6.00   -10800.00
03406              -6.00   -11000.00
03407              -2.00   -10800.00
03408              -8.00   -10600.00
03409              -2.00   -10400.00
03410              -8.00   -10400.00
03411              -8.00   -10400.00
03412              -6.00   -10200.00
03413              -4.00   -10200.00
03414              -2.00   -10000.00
03415              -6.00   -10000.00
03416              -2.00   -10000.00
03417              -6.00    -9800.00
03418              -8.00    -9800.00
03419              -2.00    -9400.00
03420              -2.00    -9400.00
03421              -2.00    -9200.00
03422              -2.00    -9400.00
03423              -4.00    -9000.00
03424              -2.00    -9000.00
03425              -6.00    -9000.00
03426              -2.00    -8600.00
03427              -2.00    -8600.00
03428              -8.00    -8600.00
03429              -2.00    -8200.00
03430              -6.00    -8200.00
03431              -2.00    -8200.00
03432              -2.00    -7800.00
03433              -6.00    -7800.00
03434              -2.00    -7600.00
03435              -4.00    -7600.00
03436              -4.00    -7400.00
03437              -2.00    -7200.00
03438              -6.00    -7000.00
03439              -4.00    -6800.00
03440              -6.00    -6600.00
03441              -8.00    -6600.00
03442              -2.00    -6600.00
03443              -2.00    -6200.00
03444              -6.00    -6200.00
03445              -6.00    -6000.00
03446              -6.00    -6000.00
03447              -6.00    -5600.00
03448              -6.00    -5600.00
03449              -4.00    -5400.00
03450              -6.00    -5200.00
03451              -6.00    -5000.00
03452              -4.00    -5000.00
03453              -6.00    -4600.00
03454              -6.00    -4400.00
03455              -2.00    -4200.00
03456              -6.00    -4000.00
03457              -6.00    -4000.00
03458              -6.00    -3600.00
03459              -2.00    -3600.00
03460              -6.00    -3400.00
03461              -2.00    -3200.00
03462              -6.00    -3000.00
03463              -4.00    -2800.00
03464              -2.00    -2600.00
03465              -6.00    -2200.00
03466              -6.00    -2200.00
03467              -2.00    -2000.00
03468              -2.00    -1800.00
03469              -2.00    -1800.00
03470              -2.00    -1400.00
03471              -2.00    -1400.00
03472              -4.00    -1200.00
03473              -2.00    -1000.00
03474              -2.00     -600.00
03475              -2.00     -600.00
03476              -4.00     -400.00
03477               0.00     -200.00
03478              -2.00        0.00
03479               0.00      200.00
03480               0.00      400.00
03481              16.00      600.00
03482              20.00      600.00
03483               0.00     1000.00
03484              -6.00     1000.00
03485               6.00     1200.00
03486               8.00     1400.00
03487               8.00     1600.00
03488              62.00     2000.00
03489             208.00     2200.00
03490              32.00     2400.00
03491            -254.00     2400.00
03492            -170.00     2800.00
03493              88.00     2800.00
03494             -58.00     2800.00
03495             162.00     3400.00
03496             128.00     3400.00
03497            -254.00     3000.00
03498             176.00     4200.00
03499             110.00     3800.00
03500            -170.00     3800.00
03501              96.00     4600.00
03502            -110.00     4000.00
03503             112.00     4600.00
03504              82.00     5000.00
03505            -240.00     4400.00
03506             136.00     5400.00
03507              10.00     5400.00
03508             -66.00     5000.00
03509              52.00     6200.00
03510             -40.00     5600.00
03511              48.00     5800.00
03512             -12.00     6400.00
03513             -16.00     6200.00
03514             -18.00     6600.00
03515              22.00     7000.00
03516              -8.00     6600.00
03517              -8.00     7000.00
03518              34.00     7400.00
03519             -66.00     7200.00
03520              36.00     7600.00
03521               8.00     7800.00
03522             -22.00     7400.00
03523              24.00     8200.00
03524             -22.00     8000.00
03525               2.00     8200.00
03526               8.00     8400.00
03527             -22.00     8400.00
03528              -6.00     8400.00
03529              26.00     9000.00
03530             -24.00     9000.00
03531               8.00     9000.00
03532               8.00     9200.00
03533             -16.00     9200.00
03534               8.00     9400.00
03535              -2.00     9400.00
03536              -2.00     9400.00
03537               6.00     9800.00
03538               2.00     9800.00
03539             -10.00    10000.00
03540               6.00    10000.00
03541             -10.00    10200.00
03542               6.00    10200.00
03543              14.00    10400.00
03544              -8.00    10400.00
03545               0.00    10600.00
03546               0.00    10600.00
03547              -8.00    10800.00
03548               2.00    10800.00
03549               2.00    11000.00
03550               0.00    10800.00
03551               6.00    11000.00
03552              -2.00    11200.00
03553              -2.00    11000.00
03554               0.00    11200.00
03555              -2.00    11200.00
03556               0.00    11400.00
03557               8.00    11400.00
03558              -2.00    11400.00
03559              -2.00    11400.00
03560               0.00    11600.00
03561              -2.00    11600.00
03562               2.00    11600.00
03563               6.00    11800.00
03564               2.00    11600.00
03565               0.00    11800.00
03566              -2.00    11600.00
03567              -4.00    11800.00
03568               0.00    11800.00
03569               0.00    11800.00
03570               0.00    11800.00
03571               2.00    11800.00
03572              -2.00    11800.00
03573              -4.00    11600.00
03574               0.00    11800.00
03575              -2.00    11800.00
03576               0.00    11800.00
03577               0.00    11800.00
03578               0.00    11800.00
03579              -2.00    11800.00
03580              -4.00    11800.00
03581              -2.00    11800.00
03582               0.00    11600.00
03583               0.00    11600.00
03584              -2.00    11600.00
03585               0.00    11400.00
03586              -2.00    11600.00
03587              -2.00    11600.00
03588              -2.00    11400.00
03589               0.00    11400.00
03590               0.00    11400.00
03591               0.00    11400.00
03592              -2.00    11400.00
03593              -2.00    11200.00
03594              -2.00    11200.00
03595              -2.00    11200.00
03596               0.00    11000.00
03597               0.00    11000.00
03598               0.00    11000.00
03599               0.00    11000.00
03600              -2.00    10800.00
03601              -2.00    10600.00
03602               0.00    10600.00
03603               0.00    10600.00
03604               0.00    10600.00
03605              -2.00    10200.00
03606              -2.00    10200.00
03607               0.00    10200.00
03608              -2.00    10200.00
03609               0.00     9800.00
03610               2.00     9800.00
03611               0.00     9800.00
03612              -2.00     9600.00
03613              -2.00     9400.00
03614              -2.00     9400.00
03615               0.00     9400.00
03616               0.00     9000.00
03617               0.00     9000.00
03618               0.00     9000.00
03619               0.00     8800.00
03620               0.00     8600.00
03621               0.00     8400.00
03622               0.00     8400.00
03623               0.00     8200.00
03624               0.00     8200.00
03625              -2.00     8000.00
03626              -2.00     7800.00
03627              -2.00     7600.00
03628               0.00     7600.00
03629               2.00     7400.00
03630               0.00     7200.00
03631               0.00     7000.00
03632              -2.00     6800.00
03633               0.00     6800.00
03634              -2.00     6600.00
03635              -2.00     6600.00
03636               0.00     6200.00
03637              -2.00     6200.00
03638              -2.00     6000.00
03639              -6.00     5800.00
03640              -2.00     5600.00
03641              -2.00     5400.00
03642               0.00     5200.00
03643               0.00     5000.00
03644               0.00     5000.00
03645              -6.00     4600.00
03646              -2.00     4600.00
03647              -6.00     4400.00
03648              -2.00     4200.00
03649              -2.00     4000.00
03650              -2.00     3800.00
03651              -6.00     3600.00
03652              -2.00     3600.00
03653              -6.00     3400.00
03654              -6.00     3200.00
03655              -2.00     2800.00
03656              -2.00     2600.00
03657              -2.00     2600.00
03658              -4.00     2400.00
03659              -6.00     2200.00
03660              -6.00     2000.00
03661              -2.00     1800.00
03662               0.00     1800.00
03663              -2.00     1400.00
03664               0.00     1200.00
03665              -2.00     1000.00
03666              -4.00      800.00
03667              -2.00      600.00
03668              -6.00      400.00
03669               0.00      200.00
03670               0.00        0.00
03671               0.00     -200.00
03672              14.00     -200.00
03673              18.00     -400.00
03674              -2.00     -800.00
03675              -8.00     -800.00
03676               2.00    -1000.00
03677              10.00    -1200.00
03678              -2.00    -1400.00
03679              10.00    -1600.00
03680              78.00    -1600.00
03681             178.00    -2000.00
03682             -40.00    -2400.00
03683            -254.00    -2600.00
03684             -96.00    -2600.00
03685             118.00    -2800.00
03686             -64.00    -3000.00
03687             -96.00    -2800.00
03688             246.00    -3200.00
03689             -40.00    -3400.00
03690            -104.00    -3400.00
03691             106.00    -4000.00
03692             -28.00    -3800.00
03693              24.00    -4000.00
03694             -48.00    -4400.00
03695               0.00    -4400.00
03696              86.00    -4400.00
03697            -104.00    -5000.00
03698              14.00    -5200.00
03699              18.00    -5000.00
03700             -32.00    -5600.00
03701              30.00    -5400.00
03702             -24.00    -5600.00
03703              10.00    -6200.00
03704             -10.00    -5800.00
03705              -2.00    -6200.00
03706             -10.00    -6600.00
03707               0.00    -6400.00
03708               0.00    -6800.00
03709             -24.00    -7000.00
03710              22.00    -7000.00
03711             -26.00    -7200.00
03712              -8.00    -7400.00
03713              10.00    -7400.00
03714             -16.00    -7800.00
03715               8.00    -7800.00
03716              -8.00    -7800.00
03717             -16.00    -8400.00
03718               2.00    -8200.00
03719             -10.00    -8400.00
03720             -14.00    -8400.00
03721              10.00    -8600.00
03722              -8.00    -8800.00
03723             -10.00    -8800.00
03724               2.00    -9000.00
03725             -10.00    -9200.00
03726             -10.00    -9200.00
03727               2.00    -9400.00
03728              -6.00    -9400.00
03729              -6.00    -9400.00
03730              -2.00    -9600.00
03731             -10.00    -9800.00
03732              -4.00    -9800.00
03733              -8.00    -9800.00
03734              -8.00   -10000.00
03735               2.00   -10200.00
03736              -2.00   -10000.00
03737             -10.00   -10200.00
03738              -2.00   -10400.00
03739              -8.00   -10600.00
03740              -8.00   -10600.00
03741              -2.00   -10400.00
03742              -2.00   -10600.00
03743              -6.00   -10800.00
03744              -6.00   -10800.00
03745              -8.00   -10800.00
03746              -2.00   -11000.00
03747              -2.00   -11000.00
03748              -8.00   -11000.00
03749              -2.00   -11200.00
03750              -4.00   -11200.00
03751              -8.00   -11400.00
03752              -6.00   -11200.00
03753              -6.00   -11400.00
03754              -2.00   -11400.00
03755              -2.00   -11400.00
03756              -6.00   -11400.00
03757              -6.00   -11600.00
03758              -6.00   -11600.00
03759              -8.00   -11400.00
03760              -6.00   -11600.00
03761               0.00   -11600.00
03762              -6.00   -11600.00
03763              -6.00   -11400.00
03764              -8.00   -11600.00
03765              -8.00   -11800.00
03766              -8.00   -11600.00
03767              -6.00   -11600.00
03768              -6.00   -11600.00
03769              -6.00   -11600.00
03770              -6.00   -11400.00
03771              -4.00   -11600.00
03772              -6.00   -11400.00
03773              -6.00   -11400.00
03774              -2.00   -11600.00
03775              -6.00   -11600.00
03776              -8.00   -11400.00
03777              -6.00   -11400.00
03778              -6.00   -11400.00
03779              -8.00   -11400.00
03780              -4.00   -11200.00
03781              -6.00   -11200.00
03782              -6.00   -11000.00
03783              -4.00   -11200.00
03784              -8.00   -11200.00
03785              -8.00   -11000.00
03786              -8.00   -10800.00
03787              -6.00   -11000.00
03788              -6.00   -10800.00
03789              -4.00   -10800.00
03790              -8.00   -10400.00
03791              -6.00   -10600.00
03792              -6.00   -10400.00
03793              -6.00   -10400.00
03794              -6.00   -10200.00
03795               0.00   -10200.00
03796              -4.00   -10200.00
03797              -6.00   -10000.00
03798              -8.00   -10000.00
03799              -8.00    -9800.00
03800              -6.00    -9600.00
03801              -2.00    -9600.00
03802              -2.00    -9400.00
03803              -2.00    -9400.00
03804              -4.00    -9400.00
03805              -6.00    -9200.00
03806              -6.00    -9000.00
03807              -4.00    -9000.00
03808              -4.00    -8800.00
03809              -6.00    -8600.00
03810              -2.00    -8600.00
03811              -6.00    -8400.00
03812              -6.00    -8200.00
03813              -2.00    -8200.00
03814              -2.00    -8200.00
03815              -2.00    -7800.00
03816              -2.00    -7800.00
03817              -6.00    -7600.00
03818              -6.00    -7400.00
03819              -2.00    -7400.00
03820              -4.00    -7200.00
03821              -2.00    -7000.00
03822              -4.00    -6800.00
03823              -6.00    -6800.00
03824              -6.00    -6600.00
03825              -4.00    -6400.00
03826              -6.00    -6200.00
03827              -2.00    -6000.00
03828              -2.00    -5800.00
03829              -6.00    -5800.00
03830              -6.00    -5600.00
03831              -6.00    -5200.00
03832              -6.00    -5200.00
03833              -6.00    -5200.00
03834              -2.00    -5000.00
03835              -6.00    -4800.00
03836              -2.00    -4600.00
03837              -6.00    -4200.00
03838              -6.00    -4000.00
03839              -6.00    -4000.00
03840              -8.00    -3600.00
03841              -2.00    -3800.00
03842              -4.00    -3600.00
03843              -6.00    -3400.00
03844              -4.00    -3000.00
03845              -6.00    -3000.00
03846              -6.00    -2600.00
03847              -2.00    -2400.00
03848              -4.00    -2200.00
03849              -2.00    -2200.00
03850              -4.00    -1800.00
03851              -6.00    -1800.00
03852              -6.00    -1600.00
03853              -4.00    -1400.00
03854              -2.00    -1200.00
03855              -2.00    -1000.00
03856              -2.00    -1000.00
03857              -6.00     -800.00
03858              -8.00     -400.00
03859              -6.00     -200.00
03860              -6.00        0.00
03861              -2.00      200.00
03862               0.00      400.00
03863               8.00      600.00
03864              22.00      600.00
03865               2.00      800.00
03866              -8.00     1000.00
03867              -2.00     1000.00
03868              12.00     1400.00
03869               2.00     1400.00
03870              32.00     1800.00
03871             166.00     2200.00
03872             142.00     2400.00
03873            -246.00     2200.00
03874            -250.00     2600.00
03875              42.00     2800.00
03876              -2.00     2800.00
03877              36.00     3000.00
03878             246.00     3600.00
03879            -254.00     3000.00
03880               0.00     3800.00
03881             242.00     4000.00
03882            -176.00     3400.00
03883              44.00     4600.00
03884             -34.00     4200.00
03885             -14.00     4200.00
03886             194.00     5200.00
03887            -224.00     4400.00
03888              24.00     5000.00
03889             112.00     5600.00
03890            -106.00     5000.00
03891              54.00     5800.00
03892             -30.00     5800.00
03893              24.00     5600.00
03894              16.00     6600.00
03895             -26.00     6200.00
03896             -12.00     6200.00
03897               2.00     6800.00
03898              18.00     6800.00
03899             -32.00     6600.00
03900              46.00     7400.00
03901             -48.00     7200.00
03902              -2.00     7400.00
03903              42.00     7800.00
03904             -38.00     7400.00
03905              24.00     7800.00
03906             -14.00     8200.00
03907              -6.00     8000.00
03908              10.00     8400.00
03909             -10.00     8600.00
03910             -20.00     8600.00
03911              24.00     8800.00
03912              -8.00     8800.00
03913             -10.00     8800.00
03914              16.00     9200.00
03915             -18.00     9200.00
03916               0.00     9400.00
03917               0.00     9400.00
03918              -2.00     9400.00
03919               2.00     9600.00
03920               6.00     9800.00
03921             -10.00     9800.00
03922               0.00    10000.00
03923              -6.00    10200.00
03924              -2.00    10000.00
03925              16.00    10200.00
03926              -4.00    10200.00
03927              -8.00    10600.00
03928               0.00    10600.00
03929              -8.00    10600.00
03930              -2.00    10600.00
03931               6.00    10800.00
03932              -2.00    11000.00
03933               4.00    11000.00
03934               0.00    11000.00
03935              -6.00    11000.00
03936               2.00    11200.00
03937              -2.00    11200.00
03938               0.00    11400.00
03939              10.00    11400.00
03940              -2.00    11400.00
03941              -6.00    11600.00
03942               0.00    11600.00
03943               0.00    11600.00
03944               0.00    11600.00
03945               2.00    11600.00
03946               0.00    11800.00
03947               0.00    11600.00
03948               0.00    11800.00
03949              -4.00    11800.00
03950               0.00    11800.00
03951               2.00    11600.00
03952               0.00    11800.00
03953               0.00    11800.00
03954               0.00    11800.00
03955              -2.00    11800.00
03956               0.00    11800.00
03957               0.00    11800.00
03958               0.00    11800.00
03959               2.00    11800.00
03960               0.00    11800.00
03961               0.00    11800.00
03962              -2.00    11800.00
03963              -6.00    11600.00
03964               0.00    11600.00
03965               0.00    11600.00
03966               0.00    11600.00
03967               0.00    11600.00
03968              -4.00    11600.00
03969              -2.00    11800.00
03970               0.00    11600.00
03971               2.00    11400.00
03972               0.00    11400.00
03973              -2.00    11400.00
03974              -2.00    11400.00
03975              -2.00    11400.00
03976              -2.00    11200.00
03977              -2.00    11000.00
03978               0.00    11000.00
03979               0.00    11000.00
03980              -2.00    11000.00
03981               0.00    10800.00
03982               0.00    10800.00
03983              -2.00    10800.00
03984               0.00    10600.00
03985               0.00    10600.00
03986              -2.00    10200.00
03987              -2.00    10400.00
03988              -2.00    10200.00
03989               0.00    10000.00
03990              -2.00    10000.00
03991               0.00    10000.00
03992              -2.00    10000.00
03993               0.00     9800.00
03994              -2.00     9800.00
03995               0.00     9600.00
03996               0.00     9400.00
03997              -2.00     9200.00
03998              -2.00     9000.00
03999               0.00     9200.00
04000              -2.00     9000.00
04001              -2.00     8800.00
04002               0.00     8800.00
04003               0.00     8600.00
04004               0.00     8400.00
04005               0.00     8200.00
04006              -2.00     8200.00
04007               0.00     8000.00
04008              -2.00     7800.00
04009               0.00     7800.00
04010               0.00     7600.00
04011               0.00     7600.00
04012               0.00     7400.00
04013              -2.00     7000.00
04014               0.00     7000.00
04015               0.00     6800.00
04016              -2.00     6600.00
04017              -2.00     6600.00
04018              -2.00     6400.00
04019               0.00     6200.00
04020               0.00     6000.00
04021              -2.00     5800.00
04022              -6.00     5600.00
04023               0.00     5400.00
04024              -2.00     5200.00
04025               0.00     5200.00
04026              -2.00     5000.00
04027              -4.00     4600.00
04028              -6.00     4600.00
04029              -6.00     4400.00
04030              -2.00     4200.00
04031              -8.00     4000.00
04032               0.00     3800.00
04033              -2.00     3600.00
04034              -6.00     3600.00
04035              -2.00     3400.00
04036              -8.00     3000.00
04037              -6.00     3000.00
04038               0.00     2800.00
04039               0.00     2600.00
04040              -8.00     2400.00
04041              -4.00     2200.00
04042              -8.00     2000.00
04043              -2.00     1800.00
04044              -2.00     1400.00
04045              -6.00     1400.00
04046              -2.00     1200.00
04047              -2.00     1000.00
04048              -8.00      800.00
04049              -6.00      600.00
04050              -6.00      400.00
04051              -6.00      400.00
04052               6.00        0.00
04053               0.00        0.00
04054               6.00     -200.00
04055              22.00     -400.00
04056               0.00     -600.00
04057             -10.00     -800.00
04058              -2.00    -1000.00
04059              10.00    -1200.00
04060               0.00    -1200.00
04061               2.00    -1400.00
04062              44.00    -1800.00
04063             162.00    -2000.00
04064              64.00    -2200.00
04065            -234.00    -2600.00
04066            -178.00    -2600.00
04067              88.00    -2600.00
04068              22.00    -2800.00
04069            -152.00    -2800.00
04070             170.00    -3000.00
04071             108.00    -3600.00
04072            -174.00    -3400.00
04073              88.00    -3800.00
04074              10.00    -3800.00
04075              -6.00    -4000.00
04076              -2.00    -4200.00
04077             -58.00    -4400.00
04078             106.00    -4400.00
04079             -66.00    -4800.00
04080             -42.00    -5200.00
04081              50.00    -5000.00
04082             -40.00    -5400.00
04083              26.00    -5600.00
04084             -10.00    -5400.00
04085               0.00    -6000.00
04086               2.00    -6000.00
04087             -14.00    -6000.00
04088              -2.00    -6600.00
04089              -8.00    -6200.00
04090              14.00    -6600.00
04091             -26.00    -6800.00
04092              10.00    -7000.00
04093              -6.00    -7400.00
04094             -30.00    -7600.00
04095              16.00    -7400.00
04096             -14.00    -7600.00
04097               6.00    -7800.00
04098               2.00    -7800.00
04099             -20.00    -8200.00
04100               0.00    -8200.00
04101              -8.00    -8200.00
04102             -14.00    -8400.00
04103               2.00    -8400.00
04104               0.00    -8600.00
04105             -14.00    -8800.00
04106               2.00    -9000.00
04107              -8.00    -9000.00
04108             -10.00    -9200.00
04109               2.00    -9200.00
04110              -2.00    -9400.00
04111              -6.00    -9600.00
04112              -2.00    -9400.00
04113             -10.00    -9800.00
04114              -6.00    -9800.00
04115              -6.00   -10000.00
04116             -10.00   -10200.00
04117               2.00   -10000.00
04118              -2.00   -10000.00
04119             -10.00   -10200.00
04120              -6.00   -10400.00
04121              -8.00   -10600.00
04122              -8.00   -10600.00
04123              -4.00   -10600.00
04124               0.00   -10800.00
04125              -2.00   -10800.00
04126              -6.00   -10800.00
04127              -8.00   -10800.00
04128             -10.00   -11000.00
04129              -4.00   -11000.00
04130              -6.00   -11000.00
04131               0.00   -11400.00
04132              -2.00   -11400.00
04133             -10.00   -11000.00
04134              -6.00   -11400.00
04135              -6.00   -11400.00
04136              -2.00   -11400.00
04137              -2.00   -11400.00
04138              -2.00   -11400.00
04139              -2.00   -11600.00
04140              -6.00   -11600.00
04141              -8.00   -11600.00
04142              -6.00   -11600.00
04143              -2.00   -11600.00
04144              -2.00   -11800.00
04145              -4.00   -11400.00
04146              -6.00   -11600.00
04147              -8.00   -11600.00
04148              -8.00   -11600.00
04149              -6.00   -11600.00
04150              -4.00   -11600.00
04151              -2.00   -11400.00
04152              -2.00   -11600.00
04153              -8.00   -11600.00
04154              -8.00   -11600.00
04155              -6.00   -11400.00
04156              -6.00   -11400.00
04157              -2.00   -11600.00
04158              -2.00   -11400.00
04159              -6.00   -11400.00
04160              -8.00   -11400.00
04161              -8.00   -11400.00
04162              -8.00   -11200.00
04163              -6.00   -11400.00
04164              -2.00   -11000.00
04165              -4.00   -11000.00
04166              -6.00   -11000.00
04167              -8.00   -11000.00
04168              -8.00   -11000.00
04169              -8.00   -10800.00
04170              -2.00   -10800.00
04171              -2.00   -10600.00
04172              -8.00   -10600.00
04173              -6.00   -10400.00
04174              -8.00   -10400.00
04175              -8.00   -10200.00
04176              -6.00   -10200.00
04177              -2.00   -10200.00
04178              -6.00   -10200.00
04179              -6.00   -10000.00
04180              -8.00   -10000.00
04181              -6.00   -10000.00
04182              -8.00    -9600.00
04183              -2.00    -9600.00
04184              -4.00    -9400.00
04185              -6.00    -9400.00
04186              -4.00    -9400.00
04187              -8.00    -9200.00
04188              -6.00    -9000.00
04189              -4.00    -9000.00
04190              -4.00    -9000.00
04191              -2.00    -8600.00
04192              -8.00    -8600.00
04193              -8.00    -8600.00
04194              -8.00    -8200.00
04195              -8.00    -8200.00
04196              -2.00    -8000.00
04197              -6.00    -7800.00
04198              -2.00    -7600.00
04199              -2.00    -7800.00
04200              -8.00    -7600.00
04201              -6.00    -7400.00
04202              -6.00    -7200.00
04203              -2.00    -7200.00
04204              -4.00    -6800.00
04205              -6.00    -6600.00
04206              -6.00    -6600.00
04207              -6.00    -6400.00
04208              -4.00    -6200.00
04209              -6.00    -6200.00
04210              -2.00    -5800.00
04211              -6.00    -5800.00
04212              -2.00    -5600.00
04213              -6.00    -5400.00
04214              -6.00    -5400.00
04215              -8.00    -5200.00
04216               0.00    -5000.00
04217              -2.00    -4800.00
04218              -2.00    -4600.00
04219              -4.00    -4400.00
04220              -6.00    -4200.00
04221              -6.00    -4000.00
04222              -2.00    -3800.00
04223              -2.00    -3600.00
04224              -4.00    -3600.00
04225              -6.00    -3400.00
04226              -6.00    -3000.00
04227              -6.00    -2800.00
04228              -6.00    -2800.00
04229              -4.00    -2600.00
04230              -2.00    -2400.00
04231              -2.00    -2200.00
04232              -2.00    -2200.00
04233              -6.00    -1800.00
04234              -6.00    -1800.00
04235              -6.00    -1400.00
04236              -2.00    -1400.00
04237              -2.00    -1200.00
04238              -2.00    -1000.00
04239              -2.00     -600.00
04240              -6.00     -600.00
04241              -6.00     -200.00
04242              -4.00     -200.00
04243              -2.00        0.00
04244               0.00      200.00
04245               2.00      400.00
04246              16.00      600.00
04247              12.00      800.00
04248              -6.00     1000.00
04249              -2.00     1000.00
04250               8.00     1200.00
04251               6.00     1400.00
04252              16.00     1600.00
04253             114.00     2000.00
04254             204.00     2400.00
04255            -138.00     2400.00
04256            -254.00     2600.00
04257             -46.00     2800.00
04258              64.00     2800.00
04259             -50.00     3000.00
04260             246.00     3600.00
04261            -114.00     3200.00
04262            -186.00     3600.00
04263             246.00     4200.00
04264             -86.00     3600.00
04265             -58.00     4200.00
04266              54.00     4600.00
04267            -106.00     4000.00
04268             214.00     5200.00
04269            -112.00     5000.00
04270            -118.00     4600.00
04271             172.00     5800.00
04272             -90.00     5000.00
04273              14.00     5400.00
04274              10.00     6000.00
04275             -10.00     5600.00
04276              42.00     6200.00
04277             -30.00     6400.00
04278              -8.00     6200.00
04279             -12.00     6800.00
04280              32.00     7000.00
04281             -32.00     6600.00
04282              32.00     7200.00
04283             -10.00     7200.00
04284             -46.00     7200.00
04285              60.00     7600.00
04286             -32.00     7600.00
04287               8.00     7800.00
04288               6.00     8200.00
04289             -18.00     7800.00
04290              14.00     8200.00
04291               0.00     8600.00
04292             -24.00     8400.00
04293              16.00     8800.00
04294               8.00     9000.00
04295             -22.00     8800.00
04296              20.00     9200.00
04297              -8.00     9200.00
04298              -8.00     9200.00
04299               6.00     9400.00
04300              -2.00     9400.00
04301               0.00     9400.00
04302               8.00     9800.00
04303              -8.00     9800.00
04304              -6.00    10000.00
04305               0.00    10000.00
04306             -10.00    10000.00
04307              14.00    10200.00
04308               2.00    10200.00
04309             -10.00    10600.00
04310               0.00    10600.00
04311              -2.00    10600.00
04312             -10.00    10600.00
04313               6.00    10600.00
04314               0.00    10800.00
04315               0.00    11000.00
04316               4.00    11000.00
04317              -4.00    11000.00
04318               0.00    11200.00
04319               0.00    11200.00
04320              -2.00    11400.00
04321               2.00    11400.00
04322               2.00    11400.00
04323              -6.00    11400.00
04324              -2.00    11600.00
04325               0.00    11600.00
04326              -2.00    11600.00
04327               6.00    11600.00
04328               4.00    11800.00
04329               0.00    11600.00
04330               0.00    11600.00
04331              -2.00    11800.00
04332               0.00    11800.00
04333               2.00    11800.00
04334               2.00    11800.00
04335               2.00    11800.00
04336               0.00    11800.00
04337              -2.00    11800.00
04338               0.00    11800.00
04339               0.00    11800.00
04340               0.00    11800.00
04341               2.00    11800.00
04342               0.00    11600.00
04343               0.00    11800.00
04344              -2.00    11800.00
04345              -2.00    11800.00
04346               0.00    11800.00
04347               2.00    11800.00
04348              -2.00    11800.00
04349               2.00    11600.00
04350               0.00    11800.00
04351              -2.00    11600.00
04352              -2.00    11600.00
04353               0.00    11400.00
04354               0.00    11400.00
04355              -2.00    11400.00
04356              -2.00    11400.00
04357              -2.00    11200.00
04358              -2.00    11200.00
04359              -2.00    11000.00
04360               0.00    11000.00
04361               0.00    10800.00
04362              -2.00    11000.00
04363              -2.00    11000.00
04364              -2.00    10800.00
04365              -2.00    10600.00
04366               0.00    10600.00
04367               0.00    10600.00
04368               0.00    10600.00
04369               0.00    10400.00
04370              -2.00    10200.00
04371              -6.00    10200.00
04372              -2.00    10000.00
04373              -2.00    10000.00
04374              -2.00     9800.00
04375               0.00     9800.00
04376              -2.00     9800.00
04377              -4.00     9400.00
04378              -4.00     9400.00
04379              -2.00     9200.00
04380              -2.00     9200.00
04381               0.00     9200.00
04382              -2.00     9000.00
04383               0.00     8600.00
04384              -6.00     8800.00
04385               0.00     8600.00
04386              -2.00     8400.00
04387               0.00     8400.00
04388               0.00     8200.00
04389              -2.00     8200.00
04390              -6.00     7800.00
04391              -6.00     7800.00
04392              -2.00     7600.00
04393               0.00     7400.00
04394               0.00     7400.00
04395              -2.00     7200.00
04396               0.00     7000.00
04397               0.00     6800.00
04398              -4.00     6600.00
04399               0.00     6600.00
04400              -2.00     6600.00
04401               0.00     6200.00
04402               0.00     6000.00
04403              -2.00     6000.00
04404              -2.00     5800.00
04405              -2.00     5600.00
04406              -2.00     5400.00
04407               0.00     5200.00
04408              -2.00     5000.00
04409               0.00     4800.00
04410              -2.00     4600.00
04411              -2.00     4600.00
04412              -2.00     4200.00
04413              -2.00     4200.00
04414               0.00     4000.00
04415              -2.00     3800.00
04416              -2.00     3600.00
04417              -4.00     3400.00
04418              -4.00     3200.00
04419              -6.00     2800.00
04420              -2.00     2800.00
04421              -2.00     2600.00
04422              -2.00     2400.00
04423              -6.00     2200.00
04424              -4.00     2000.00
04425              -4.00     1800.00
04426              -6.00     1800.00
04427              -4.00     1400.00
04428              -2.00     1400.00
04429              -2.00     1200.00
04430              -6.00     1000.00
04431              -4.00      800.00
04432              -6.00      600.00
04433              -2.00      400.00
04434              -2.00      200.00
04435              -2.00      200.00
04436               2.00     -200.00
04437              18.00     -200.00
04438              10.00     -400.00
04439             -10.00     -600.00
04440              -8.00     -800.00
04441               4.00    -1000.00
04442               4.00    -1200.00
04443              -2.00    -1400.00
04444              26.00    -1600.00
04445             124.00    -1800.00
04446             142.00    -2200.00
04447            -168.00    -2600.00
04448            -238.00    -2600.00
04449              16.00    -2600.00
04450              86.00    -2800.00
04451            -144.00    -2800.00
04452              46.00    -3000.00
04453             220.00    -3400.00
04454            -170.00    -3400.00
04455              20.00    -3400.00
04456              62.00    -4000.00
04457             -34.00    -3600.00
04458              30.00    -4000.00
04459             -82.00    -4400.00
04460              82.00    -4400.00
04461               2.00    -4600.00
04462             -90.00    -5200.00
04463              56.00    -5000.00
04464             -26.00    -5200.00
04465               2.00    -5800.00
04466              14.00    -5400.00
04467             -16.00    -5800.00
04468              16.00    -6000.00
04469             -16.00    -5800.00
04470               0.00    -6400.00
04471             -14.00    -6200.00
04472              14.00    -6600.00
04473             -16.00    -6800.00
04474              -4.00    -6800.00
04475              16.00    -7000.00
04476             -34.00    -7400.00
04477              14.00    -7400.00
04478              -4.00    -7400.00
04479              -6.00    -7800.00
04480              14.00    -7800.00
04481             -18.00    -7800.00
04482               0.00    -8200.00
04483               0.00    -8200.00
04484             -10.00    -8400.00
04485              -6.00    -8600.00
04486               8.00    -8600.00
04487             -16.00    -8800.00
04488              -2.00    -9000.00
04489               0.00    -9000.00
04490             -14.00    -9200.00
04491              -2.00    -9200.00
04492               0.00    -9400.00
04493              -6.00    -9400.00
04494              -2.00    -9600.00
04495              -6.00    -9600.00
04496             -10.00    -9800.00
04497              -4.00    -9800.00
04498              -8.00   -10000.00
04499              -2.00   -10000.00
04500               2.00   -10000.00
04501             -10.00   -10200.00
04502              -6.00   -10200.00
04503              -6.00   -10600.00
04504             -10.00   -10400.00
04505              -6.00   -10600.00
04506               0.00   -10400.00
04507              -6.00   -10800.00
04508              -8.00   -10800.00
04509              -6.00   -11000.00
04510             -10.00   -11000.00
04511              -2.00   -11000.00
04512              -6.00   -11000.00
04513              -8.00   -11200.00
04514               0.00   -11400.00
04515              -6.00   -11200.00
04516              -8.00   -11200.00
04517              -6.00   -11200.00
04518              -6.00   -11600.00
04519              -2.00   -11400.00
04520              -6.00   -11400.00
04521              -6.00   -11600.00
04522              -4.00   -11400.00
04523              -8.00   -11600.00
04524              -6.00   -11400.00
04525              -2.00   -11400.00
04526              -2.00   -11600.00
04527              -8.00   -11600.00
04528              -4.00   -11400.00
04529             -10.00   -11600.00
04530              -8.00   -11400.00
04531              -8.00   -11600.00
04532              -2.00   -11600.00
04533               0.00   -11600.00
04534               0.00   -11600.00
04535               0.00   -11600.00
04536              -2.00   -11400.00
04537              -4.00   -11600.00
04538              -6.00   -11400.00
04539              -6.00   -11400.00
04540              -8.00   -11400.00
04541             -14.00   -11400.00
04542             -10.00   -11400.00
04543              -6.00   -11200.00
04544               0.00   -11400.00
04545               0.00   -11200.00
04546               2.00   -11200.00
04547               0.00   -11000.00
04548              -2.00   -11000.00
04549             -12.00   -11000.00
04550             -14.00   -11000.00
04551             -14.00   -11000.00
04552             -10.00   -10800.00
04553              -2.00   -10800.00
04554              -2.00   -10600.00
04555               0.00   -10600.00
04556              -2.00   -10400.00
04557              -6.00   -10600.00
04558              -6.00   -10200.00
04559              -6.00   -10200.00
04560             -10.00   -10200.00
04561             -10.00   -10000.00
04562             -10.00   -10000.00
04563              -8.00    -9800.00
04564              -6.00    -9800.00
04565              -2.00    -9800.00
04566               2.00    -9600.00
04567               0.00    -9400.00
04568              -2.00    -9200.00
04569              -6.00    -9200.00
04570             -10.00    -9200.00
04571             -10.00    -9000.00
04572             -10.00    -9000.00
04573             -10.00    -8600.00
04574              -8.00    -8600.00
04575              -4.00    -8600.00
04576              -2.00    -8400.00
04577               0.00    -8200.00
04578               0.00    -8000.00
04579              -6.00    -8200.00
04580             -10.00    -7800.00
04581             -10.00    -7800.00
04582             -10.00    -7400.00
04583              -8.00    -7400.00
04584              -6.00    -7400.00
04585              -2.00    -7200.00
04586               0.00    -6800.00
04587              -2.00    -6800.00
04588              -6.00    -6600.00
04589              -6.00    -6600.00
04590              -8.00    -6200.00
04591             -10.00    -6200.00
04592              -6.00    -6000.00
04593              -2.00    -5800.00
04594              -2.00    -5600.00
04595               0.00    -5400.00
04596              -2.00    -5400.00
04597              -2.00    -5200.00
04598              -6.00    -5200.00
04599              -2.00    -4600.00
04600              -2.00    -4400.00
04601              -6.00    -4400.00
04602              -6.00    -4000.00
04603              -6.00    -4000.00
04604              -2.00    -3800.00
04605              -2.00    -3800.00
04606              -2.00    -3600.00
04607              -2.00    -3400.00
04608              -2.00    -3200.00
04609              -6.00    -3000.00
04610              -6.00    -3000.00
04611              -2.00    -2600.00
04612              -4.00    -2600.00
04613              -2.00    -2400.00
04614              -2.00    -2200.00
04615              -2.00    -1800.00
04616              -6.00    -1800.00
04617              -2.00    -1400.00
04618              -2.00    -1400.00
04619              -6.00    -1200.00
04620              -2.00    -1000.00
04621              -6.00     -600.00
04622              -6.00     -600.00
04623              -2.00     -400.00
04624              -2.00     -200.00
04625               0.00     -200.00
04626               0.00      200.00
04627               0.00      400.00
04628              14.00      600.00
04629              16.00      800.00
04630              -2.00      800.00
04631              -6.00     1000.00
04632               6.00     1200.00
04633              10.00     1200.00
04634               8.00     1800.00
04635              70.00     1800.00
04636             212.00     2200.00
04637              -8.00     2400.00
04638            -254.00     2600.00
04639            -144.00     2800.00
04640              88.00     2800.00
04641             -68.00     2800.00
04642             192.00     3400.00
04643              80.00     3400.00
04644            -254.00     3200.00
04645             214.00     4200.00
04646              66.00     3600.00
04647            -154.00     3800.00
04648              96.00     4600.00
04649            -120.00     4000.00
04650             142.00     4600.00
04651              42.00     5000.00
04652            -222.00     4400.00
04653             158.00     5400.00
04654             -16.00     5200.00
04655             -48.00     5200.00
04656              48.00     6200.00
04657             -38.00     5600.00
04658              50.00     6000.00
04659             -16.00     6600.00
04660             -12.00     6200.00
04661             -16.00     6600.00
04662              26.00     6800.00
04663             -10.00     6600.00
04664               2.00     7000.00
04665              32.00     7200.00
04666             -64.00     7000.00
04667              46.00     7600.00
04668               0.00     7800.00
04669             -16.00     7600.00
04670              22.00     8200.00
04671             -22.00     8200.00
04672               8.00     8200.00
04673               8.00     8600.00
04674             -18.00     8400.00
04675               0.00     8800.00
04676              24.00     9000.00
04677             -24.00     8800.00
04678              10.00     9000.00
04679               2.00     9200.00
04680             -16.00     9200.00
04681               8.00     9400.00
04682              -2.00     9400.00
04683              -2.00     9600.00
04684               6.00     9800.00
04685               0.00     9800.00
04686             -12.00     9800.00
04687               6.00    10000.00
04688             -10.00    10000.00
04689               6.00    10200.00
04690              10.00    10400.00
04691             -10.00    10400.00
04692               0.00    10600.00
04693               0.00    10800.00
04694              -8.00    10600.00
04695               0.00    10800.00
04696               0.00    11000.00
04697              -2.00    10800.00
04698               6.00    11000.00
04699              -6.00    11000.00
04700              -2.00    11000.00
04701               0.00    11200.00
04702              -2.00    11200.00
04703               0.00    11400.00
04704               6.00    11400.00
04705              -6.00    11400.00
04706              -2.00    11400.00
04707               2.00    11600.00
04708              -2.00    11600.00
04709               6.00    11600.00
04710               4.00    11800.00
04711               0.00    11600.00
04712               0.00    11800.00
04713              -2.00    11800.00
04714              -2.00    11800.00
04715               0.00    11800.00
04716               0.00    11800.00
04717              -2.00    11600.00
04718               0.00    11800.00
04719               0.00    11800.00
04720               0.00    11800.00
04721               2.00    11800.00
04722               0.00    11800.00
04723               2.00    11800.00
04724               0.00    11800.00
04725               0.00    11800.00
04726               0.00    11800.00
04727              -2.00    11800.00
04728               0.00    11600.00
04729               2.00    11600.00
04730               0.00    11800.00
04731               0.00    11600.00
04732               0.00    11800.00
04733              -2.00    11600.00
04734              -2.00    11600.00
04735               0.00    11400.00
04736               0.00    11400.00
04737               0.00    11600.00
04738               0.00    11400.00
04739              -2.00    11400.00
04740               0.00    11400.00
04741               0.00    11400.00
04742               0.00    11200.00
04743               2.00    11000.00
04744               0.00    11200.00
04745              -2.00    11000.00
04746              -2.00    10800.00
04747               0.00    10800.00
04748              -2.00    10800.00
04749              -2.00    10600.00
04750               0.00    10400.00
04751               0.00    10600.00
04752              -2.00    10200.00
04753              -2.00    10200.00
04754              -4.00    10200.00
04755              -2.00    10000.00
04756               0.00     9800.00
04757              -2.00    10000.00
04758              -2.00     9800.00
04759              -2.00     9800.00
04760              -2.00     9400.00
04761              -2.00     9200.00
04762              -2.00     9400.00
04763              -2.00     9200.00
04764              -2.00     9000.00
04765              -2.00     9000.00
04766              -6.00     8800.00
04767              -2.00     8600.00
04768              -2.00     8600.00
04769               0.00     8400.00
04770              -2.00     8200.00
04771              -2.00     8200.00
04772              -2.00     7800.00
04773              -6.00     7800.00
04774               0.00     7600.00
04775              -2.00     7600.00
04776               0.00     7400.00
04777               0.00     7400.00
04778              -2.00     7200.00
04779              -2.00     7000.00
04780              -2.00     7000.00
04781              -2.00     6600.00
04782              -2.00     6400.00
04783               0.00     6200.00
04784               0.00     6200.00
04785              -2.00     6000.00
04786              -4.00     5800.00
04787               0.00     5600.00
04788              -2.00     5400.00
04789               0.00     5200.00
04790               0.00     5000.00
04791               0.00     5000.00
04792              -4.00     4800.00
04793              -2.00     4600.00
04794              -6.00     4400.00
04795              -2.00     4200.00
04796               0.00     3800.00
04797              -2.00     3800.00
04798              -2.00     3600.00
04799              -6.00     3400.00
04800              -4.00     3400.00
04801              -2.00     3000.00
04802              -2.00     2800.00
04803               0.00     2800.00
04804              -2.00     2600.00
04805              -2.00     2400.00
04806              -2.00     2400.00
04807              -6.00     2000.00
04808              -2.00     1800.00
04809              -2.00     1400.00
04810               0.00     1600.00
04811              -2.00     1200.00
04812              -6.00     1000.00
04813              -6.00      800.00
04814              -6.00      600.00
04815              -4.00      400.00
04816               0.00      200.00
04817              -2.00      200.00
04818               2.00     -200.00
04819              14.00     -200.00
04820              16.00     -400.00
04821              -4.00     -600.00
04822             -10.00     -600.00
04823               2.00    -1000.00
04824               8.00    -1200.00
04825              -2.00    -1200.00
04826               8.00    -1400.00
04827              86.00    -1800.00
04828             176.00    -2200.00
04829             -70.00    -2600.00
04830            -254.00    -2400.00
04831             -76.00    -2600.00
04832             118.00    -2800.00
04833             -86.00    -2800.00
04834             -70.00    -2800.00
04835             246.00    -3400.00
04836             -78.00    -3600.00
04837             -78.00    -3400.00
04838             106.00    -4000.00
04839             -32.00    -3800.00
04840              26.00    -4000.00
04841             -62.00    -4400.00
04842              18.00    -4400.00
04843              70.00    -4400.00
04844            -110.00    -5000.00
04845              26.00    -5000.00
04846              10.00    -5000.00
04847             -26.00    -5400.00
04848              26.00    -5400.00
04849             -24.00    -5600.00
04850              16.00    -6000.00
04851             -14.00    -5800.00
04852              -2.00    -6200.00
04853             -10.00    -6600.00
04854               4.00    -6200.00
04855              -6.00    -6800.00
04856             -22.00    -6800.00
04857              24.00    -7000.00
04858             -26.00    -7400.00
04859              -2.00    -7400.00
04860               8.00    -7400.00
04861             -14.00    -7800.00
04862              14.00    -7800.00
04863             -10.00    -7800.00
04864             -10.00    -8200.00
04865               6.00    -8200.00
04866             -10.00    -8400.00
04867             -10.00    -8400.00
04868              10.00    -8600.00
04869              -6.00    -8600.00
04870             -10.00    -8800.00
04871               4.00    -9000.00
04872             -10.00    -9000.00
04873              -6.00    -9200.00
04874               2.00    -9200.00
04875              -6.00    -9400.00
04876              -4.00    -9400.00
04877              -6.00    -9400.00
04878             -12.00    -9800.00
04879              -2.00    -9800.00
04880              -8.00    -9800.00
04881              -6.00   -10000.00
04882               6.00   -10000.00
04883              -8.00   -10200.00
04884             -10.00   -10200.00
04885              -4.00   -10200.00
04886             -10.00   -10400.00
04887              -6.00   -10600.00
04888               0.00   -10400.00
04889              -2.00   -10800.00
04890              -6.00   -11000.00
04891              -6.00   -10800.00
04892              -8.00   -11000.00
04893              -6.00   -10800.00
04894              -2.00   -11000.00
04895              -8.00   -11000.00
04896              -2.00   -11000.00
04897              -6.00   -11400.00
04898              -8.00   -11400.00
04899              -8.00   -11400.00
04900              -6.00   -11400.00
04901              -6.00   -11400.00
04902              -6.00   -11600.00
04903              -6.00   -11400.00
04904              -6.00   -11400.00
04905              -8.00   -11600.00
04906              -6.00   -11600.00
04907              -4.00   -11600.00
04908              -2.00   -11600.00
04909              -6.00   -11600.00
04910              -2.00   -11600.00
04911              -8.00   -11800.00
04912              -8.00   -11400.00
04913              -6.00   -11600.00
04914              -6.00   -11600.00
04915              -2.00   -11600.00
04916              -2.00   -11600.00
04917              -6.00   -11600.00
04918              -6.00   -11400.00
04919              -8.00   -11600.00
04920              -8.00   -11600.00
04921              -2.00   -11400.00
04922              -2.00   -11400.00
04923              -4.00   -11400.00
04924              -8.00   -11400.00
04925              -6.00   -11400.00
04926              -6.00   -11400.00
04927              -6.00   -11000.00
04928              -2.00   -11200.00
04929              -6.00   -11000.00
04930              -2.00   -11000.00
04931              -8.00   -11000.00
04932              -6.00   -11000.00
04933              -8.00   -10800.00
04934              -2.00   -10800.00
04935              -2.00   -10600.00
04936              -2.00   -10400.00
04937              -8.00   -10400.00
04938              -6.00   -10600.00
04939              -6.00   -10400.00
04940              -8.00   -10200.00
04941              -6.00   -10200.00
04942              -2.00   -10200.00
04943              -6.00   -10000.00
04944              -8.00   -10000.00
04945              -8.00    -9800.00
04946              -6.00    -9800.00
04947              -8.00    -9800.00
04948              -4.00    -9400.00
04949              -6.00    -9400.00
04950              -6.00    -9400.00
04951              -6.00    -9200.00
04952              -8.00    -9200.00
04953              -6.00    -9000.00
04954              -6.00    -9000.00
04955              -4.00    -8600.00
04956              -6.00    -8600.00
04957              -8.00    -8400.00
04958              -8.00    -8400.00
04959              -6.00    -8400.00
04960              -6.00    -8200.00
04961              -2.00    -7800.00
04962              -6.00    -7800.00
04963              -6.00    -7800.00
04964              -6.00    -7600.00
04965              -6.00    -7600.00
04966              -6.00    -7400.00
04967              -4.00    -7200.00
04968              -2.00    -7000.00
04969              -6.00    -6800.00
04970              -2.00    -6600.00
04971              -6.00    -6600.00
04972              -6.00    -6200.00
04973              -2.00    -6200.00
04974              -4.00    -6200.00
04975              -6.00    -6000.00
04976              -6.00    -5800.00
04977              -8.00    -5600.00
04978              -6.00    -5200.00
04979              -6.00    -5200.00
04980              -4.00    -5000.00
04981              -2.00    -4800.00
04982              -2.00    -4600.00
04983              -2.00    -4400.00
04984              -6.00    -4400.00
04985              -6.00    -4000.00
04986              -4.00    -3800.00
04987              -2.00    -3600.00
04988              -2.00    -3600.00
04989               0.00    -3400.00
04990              -2.00    -3400.00
04991              -6.00    -3000.00
04992              -2.00    -2800.00
04993              -6.00    -2800.00
04994              -2.00    -2400.00
04995               0.00    -2200.00
04996              -2.00    -2000.00
04997              -2.00    -2000.00
04998              -4.00    -1800.00
04999              -2.00    -1600.00
05000              -2.00    -1200.00
