Unit:(mV)
                     CH1         CH2
Frequency              ? 299.067 kHz
00001             780.00    -2400.00
00002            1120.00    -3000.00
00003             180.00    -3000.00
00004            -840.00    -3400.00
00005            -960.00    -3600.00
00006            -720.00    -3600.00
00007            -740.00    -3600.00
00008             -20.00    -4200.00
00009             460.00    -5000.00
00010             160.00    -4400.00
00011             340.00    -5200.00
00012             -40.00    -5400.00
00013              80.00    -5200.00
00014             260.00    -5800.00
00015               0.00    -5800.00
00016             160.00    -6600.00
00017              60.00    -6400.00
00018             -60.00    -6600.00
00019            -140.00    -7200.00
00020              80.00    -6800.00
00021              80.00    -7600.00
00022             -80.00    -7400.00
00023             140.00    -7800.00
00024             120.00    -7800.00
00025              40.00    -8400.00
00026              20.00    -8600.00
00027             160.00    -8600.00
00028             100.00    -9000.00
00029              20.00    -9200.00
00030              60.00    -9400.00
00031              80.00    -9400.00
00032              60.00    -9800.00
00033              80.00   -10000.00
00034             180.00   -10000.00
00035             140.00   -10600.00
00036             160.00   -10600.00
00037             220.00   -10800.00
00038             160.00   -10800.00
00039              80.00   -11000.00
00040             120.00   -11400.00
00041             100.00   -11400.00
00042              60.00   -11600.00
00043             120.00   -11600.00
00044             220.00   -11800.00
00045             220.00   -11800.00
00046             240.00   -12200.00
00047             320.00   -12200.00
00048             300.00   -12400.00
00049             260.00   -12600.00
00050             240.00   -12600.00
00051             220.00   -13000.00
00052             200.00   -13000.00
00053             240.00   -13000.00
00054             320.00   -12800.00
00055             380.00   -13200.00
00056             420.00   -13200.00
00057             480.00   -13400.00
00058             460.00   -13400.00
00059             420.00   -13400.00
00060             420.00   -13600.00
00061             420.00   -13800.00
00062             460.00   -13800.00
00063             540.00   -13600.00
00064             620.00   -14000.00
00065             640.00   -14000.00
00066             660.00   -14000.00
00067             760.00   -14000.00
00068             820.00   -14000.00
00069             820.00   -14200.00
00070             880.00   -14200.00
00071             900.00   -14200.00
00072             940.00   -14200.00
00073             980.00   -14200.00
00074            1100.00   -14200.00
00075            1200.00   -14200.00
00076            1360.00   -14200.00
00077            1500.00   -14200.00
00078            1600.00   -14200.00
00079            1660.00   -14200.00
00080            1740.00   -14000.00
00081            1820.00   -14000.00
00082            1900.00   -14200.00
00083            2000.00   -14000.00
00084            2100.00   -14000.00
00085            2180.00   -14000.00
00086            2220.00   -13600.00
00087            2260.00   -13800.00
00088            2240.00   -13600.00
00089            2180.00   -13600.00
00090            2140.00   -13600.00
00091            2060.00   -13400.00
00092            1920.00   -13400.00
00093            1820.00   -13200.00
00094            1740.00   -13200.00
00095            1620.00   -13200.00
00096            1520.00   -13000.00
00097            1420.00   -13000.00
00098            1280.00   -12800.00
00099            1120.00   -12800.00
00100            1020.00   -12600.00
00101             940.00   -12400.00
00102             840.00   -12400.00
00103             780.00   -12200.00
00104             700.00   -12200.00
00105             640.00   -12000.00
00106             600.00   -11800.00
00107             560.00   -11600.00
00108             500.00   -11400.00
00109             480.00   -11400.00
00110             420.00   -11400.00
00111             400.00   -11000.00
00112             340.00   -10800.00
00113             320.00   -10800.00
00114             300.00   -10600.00
00115             320.00   -10400.00
00116             300.00   -10000.00
00117             280.00   -10000.00
00118             260.00    -9800.00
00119             220.00    -9600.00
00120             200.00    -9400.00
00121             180.00    -9200.00
00122             180.00    -9000.00
00123             180.00    -8800.00
00124             180.00    -8600.00
00125             200.00    -8400.00
00126             180.00    -8200.00
00127             180.00    -8000.00
00128             160.00    -7800.00
00129             160.00    -7600.00
00130             140.00    -7200.00
00131             140.00    -7000.00
00132             140.00    -6800.00
00133             140.00    -6600.00
00134             140.00    -6400.00
00135             140.00    -6200.00
00136             140.00    -5800.00
00137             120.00    -5400.00
00138             120.00    -5400.00
00139              80.00    -5000.00
00140              80.00    -4800.00
00141              80.00    -4600.00
00142             100.00    -4200.00
00143             140.00    -4200.00
00144             100.00    -3800.00
00145             100.00    -3600.00
00146              80.00    -3400.00
00147              60.00    -3000.00
00148              80.00    -2800.00
00149              80.00    -2400.00
00150              80.00    -2200.00
00151              80.00    -2000.00
00152              80.00    -1800.00
00153              80.00    -1400.00
00154              80.00    -1200.00
00155              80.00     -800.00
00156              80.00     -800.00
00157              80.00     -400.00
00158              80.00     -200.00
00159              60.00      200.00
00160             100.00      400.00
00161             180.00      600.00
00162             260.00      800.00
00163             240.00     1000.00
00164             180.00     1200.00
00165             160.00     1600.00
00166             160.00     1800.00
00167             400.00     2000.00
00168            1240.00     2600.00
00169            1200.00     2800.00
00170            -140.00     3000.00
00171           -1180.00     3200.00
00172           -1060.00     3400.00
00173            -940.00     3800.00
00174            -160.00     4000.00
00175             760.00     4200.00
00176             300.00     4400.00
00177             340.00     5000.00
00178            -100.00     4600.00
00179             -80.00     5600.00
00180             300.00     5600.00
00181            -120.00     5400.00
00182             240.00     6200.00
00183             120.00     5800.00
00184            -100.00     6800.00
00185            -180.00     6400.00
00186             -20.00     6800.00
00187             140.00     7400.00
00188            -140.00     7000.00
00189              80.00     7800.00
00190             -20.00     7800.00
00191               0.00     8200.00
00192             -80.00     8200.00
00193               0.00     8400.00
00194               0.00     8800.00
00195            -100.00     8600.00
00196             -20.00     9200.00
00197            -120.00     9400.00
00198             -80.00     9600.00
00199            -140.00     9800.00
00200              20.00    10200.00
00201             -80.00    10200.00
00202            -100.00    10200.00
00203            -120.00    10600.00
00204            -100.00    10800.00
00205            -140.00    10800.00
00206            -140.00    11000.00
00207            -140.00    11400.00
00208            -200.00    11400.00
00209            -160.00    11600.00
00210            -160.00    11800.00
00211            -160.00    12000.00
00212            -160.00    12200.00
00213            -180.00    12200.00
00214            -240.00    12200.00
00215            -260.00    12400.00
00216            -240.00    12600.00
00217            -220.00    12800.00
00218            -280.00    12800.00
00219            -320.00    12800.00
00220            -320.00    13000.00
00221            -320.00    13200.00
00222            -320.00    13200.00
00223            -320.00    13200.00
00224            -360.00    13400.00
00225            -440.00    13600.00
00226            -460.00    13800.00
00227            -480.00    13600.00
00228            -500.00    13800.00
00229            -520.00    13800.00
00230            -520.00    14000.00
00231            -580.00    14000.00
00232            -640.00    14000.00
00233            -680.00    14000.00
00234            -720.00    14000.00
00235            -740.00    14200.00
00236            -800.00    14200.00
00237            -840.00    14200.00
00238            -940.00    14200.00
00239           -1000.00    14200.00
00240           -1060.00    14200.00
00241           -1140.00    14200.00
00242           -1220.00    14200.00
00243           -1300.00    14200.00
00244           -1420.00    14200.00
00245           -1520.00    14200.00
00246           -1620.00    14200.00
00247           -1740.00    14200.00
00248           -1860.00    14000.00
00249           -1940.00    14200.00
00250           -2020.00    14000.00
00251           -2080.00    14000.00
00252           -2160.00    14000.00
00253           -2220.00    13800.00
00254           -2240.00    13800.00
00255           -2240.00    13800.00
00256           -2200.00    13800.00
00257           -2160.00    13600.00
00258           -2080.00    13600.00
00259           -2000.00    13600.00
00260           -1920.00    13400.00
00261           -1780.00    13400.00
00262           -1660.00    13200.00
00263           -1500.00    13200.00
00264           -1380.00    13200.00
00265           -1280.00    13000.00
00266           -1200.00    13000.00
00267           -1060.00    12600.00
00268            -980.00    12600.00
00269            -880.00    12400.00
00270            -800.00    12400.00
00271            -720.00    12200.00
00272            -680.00    12000.00
00273            -640.00    12000.00
00274            -580.00    11600.00
00275            -540.00    11400.00
00276            -480.00    11600.00
00277            -460.00    11200.00
00278            -420.00    11000.00
00279            -400.00    11000.00
00280            -380.00    10600.00
00281            -340.00    10600.00
00282            -300.00    10400.00
00283            -280.00    10200.00
00284            -280.00    10000.00
00285            -260.00     9800.00
00286            -260.00     9600.00
00287            -240.00     9400.00
00288            -240.00     9200.00
00289            -240.00     9200.00
00290            -220.00     8600.00
00291            -220.00     8600.00
00292            -180.00     8400.00
00293            -200.00     8200.00
00294            -180.00     8000.00
00295            -180.00     7600.00
00296            -160.00     7400.00
00297            -160.00     7400.00
00298            -160.00     7000.00
00299            -160.00     6800.00
00300            -160.00     6600.00
00301            -160.00     6200.00
00302            -140.00     6200.00
00303            -140.00     5800.00
00304            -140.00     5800.00
00305            -140.00     5400.00
00306            -140.00     5200.00
00307            -140.00     4800.00
00308            -120.00     4400.00
00309            -120.00     4400.00
00310            -100.00     4200.00
00311            -100.00     3800.00
00312            -120.00     3400.00
00313            -140.00     3400.00
00314            -100.00     3000.00
00315            -100.00     2800.00
00316            -100.00     2600.00
00317            -100.00     2200.00
00318            -100.00     2000.00
00319             -80.00     1800.00
00320             -80.00     1400.00
00321             -80.00     1200.00
00322             -80.00     1000.00
00323             -80.00      600.00
00324             -80.00      400.00
00325             -80.00      200.00
00326             -80.00     -200.00
00327             -60.00     -400.00
00328              60.00     -600.00
00329             140.00     -600.00
00330             100.00    -1000.00
00331              60.00    -1400.00
00332              20.00    -1600.00
00333               0.00    -1800.00
00334             100.00    -2000.00
00335             480.00    -2400.00
00336            1120.00    -2800.00
00337             620.00    -3000.00
00338            -500.00    -3200.00
00339           -1020.00    -3600.00
00340            -800.00    -3600.00
00341            -720.00    -3600.00
00342            -400.00    -4200.00
00343             460.00    -4600.00
00344             220.00    -4400.00
00345             320.00    -4600.00
00346             140.00    -5400.00
00347             -80.00    -5000.00
00348             300.00    -5800.00
00349              80.00    -5800.00
00350              80.00    -6200.00
00351             100.00    -6400.00
00352             -20.00    -6200.00
00353            -100.00    -7200.00
00354               0.00    -7000.00
00355             140.00    -7200.00
00356             -80.00    -7600.00
00357              60.00    -7600.00
00358             160.00    -8200.00
00359              60.00    -8000.00
00360               0.00    -8600.00
00361             120.00    -8600.00
00362             160.00    -8800.00
00363              60.00    -9200.00
00364              60.00    -9200.00
00365              80.00    -9400.00
00366              60.00    -9400.00
00367              60.00   -10000.00
00368             160.00   -10000.00
00369             140.00   -10200.00
00370              60.00   -10600.00
00371             140.00   -10600.00
00372             160.00   -10800.00
00373             120.00   -11000.00
00374             140.00   -11400.00
00375             180.00   -11200.00
00376             120.00   -11600.00
00377             140.00   -11600.00
00378             220.00   -11800.00
00379             220.00   -11800.00
00380             180.00   -12200.00
00381             220.00   -12200.00
00382             240.00   -12400.00
00383             240.00   -12600.00
00384             280.00   -12600.00
00385             300.00   -12800.00
00386             260.00   -13000.00
00387             240.00   -13000.00
00388             320.00   -13000.00
00389             340.00   -13200.00
00390             380.00   -13400.00
00391             400.00   -13200.00
00392             420.00   -13400.00
00393             420.00   -13400.00
00394             400.00   -13600.00
00395             480.00   -13600.00
00396             500.00   -13800.00
00397             540.00   -13800.00
00398             620.00   -14000.00
00399             620.00   -13800.00
00400             640.00   -14000.00
00401             700.00   -14000.00
00402             760.00   -14000.00
00403             800.00   -14000.00
00404             840.00   -14200.00
00405             940.00   -14000.00
00406             980.00   -14200.00
00407            1020.00   -14200.00
00408            1100.00   -14200.00
00409            1180.00   -14200.00
00410            1280.00   -14200.00
00411            1420.00   -14200.00
00412            1540.00   -14200.00
00413            1620.00   -14200.00
00414            1700.00   -14200.00
00415            1820.00   -14200.00
00416            1900.00   -14200.00
00417            2000.00   -14000.00
00418            2100.00   -14000.00
00419            2180.00   -14000.00
00420            2180.00   -13600.00
00421            2220.00   -14000.00
00422            2220.00   -13600.00
00423            2220.00   -13600.00
00424            2160.00   -13600.00
00425            2100.00   -13400.00
00426            2020.00   -13400.00
00427            1900.00   -13400.00
00428            1760.00   -13400.00
00429            1660.00   -13200.00
00430            1540.00   -13000.00
00431            1420.00   -13200.00
00432            1280.00   -13000.00
00433            1180.00   -12800.00
00434            1060.00   -12600.00
00435             960.00   -12600.00
00436             880.00   -12600.00
00437             800.00   -12200.00
00438             740.00   -12200.00
00439             700.00   -12200.00
00440             620.00   -12000.00
00441             540.00   -11800.00
00442             500.00   -11600.00
00443             480.00   -11400.00
00444             440.00   -11200.00
00445             400.00   -11200.00
00446             380.00   -11000.00
00447             320.00   -10800.00
00448             320.00   -10800.00
00449             300.00   -10400.00
00450             300.00   -10200.00
00451             260.00   -10000.00
00452             240.00    -9800.00
00453             240.00    -9800.00
00454             240.00    -9400.00
00455             220.00    -9200.00
00456             220.00    -9200.00
00457             220.00    -8800.00
00458             180.00    -8600.00
00459             180.00    -8400.00
00460             160.00    -8400.00
00461             160.00    -8000.00
00462             160.00    -8200.00
00463             160.00    -7600.00
00464             160.00    -7200.00
00465             140.00    -7000.00
00466             140.00    -7000.00
00467             140.00    -6600.00
00468             100.00    -6200.00
00469             140.00    -6200.00
00470             140.00    -6000.00
00471             120.00    -5800.00
00472             140.00    -5400.00
00473             100.00    -5200.00
00474             100.00    -5000.00
00475             100.00    -4800.00
00476             100.00    -4400.00
00477             100.00    -4200.00
00478             120.00    -3800.00
00479             100.00    -3800.00
00480              80.00    -3400.00
00481              80.00    -3200.00
00482              80.00    -2800.00
00483             100.00    -2600.00
00484             100.00    -2400.00
00485              80.00    -2200.00
00486              80.00    -1800.00
00487              80.00    -1600.00
00488              80.00    -1400.00
00489              80.00    -1000.00
00490              80.00     -600.00
00491              80.00     -600.00
00492              80.00     -200.00
00493              80.00     -200.00
00494              80.00      400.00
00495             140.00      600.00
00496             240.00      800.00
00497             240.00     1000.00
00498             180.00     1200.00
00499             160.00     1400.00
00500             160.00     1800.00
00501             260.00     2000.00
00502             900.00     2400.00
00503            1420.00     2800.00
00504             420.00     2800.00
00505            -900.00     3200.00
00506           -1200.00     3200.00
00507            -960.00     3600.00
00508            -620.00     4000.00
00509             620.00     4000.00
00510             460.00     4000.00
00511             300.00     5000.00
00512             140.00     4600.00
00513            -260.00     5200.00
00514             300.00     5800.00
00515             -20.00     5200.00
00516              80.00     6200.00
00517             240.00     6000.00
00518            -100.00     6400.00
00519            -140.00     6600.00
00520            -160.00     6400.00
00521             160.00     7400.00
00522             -80.00     6800.00
00523               0.00     7600.00
00524              60.00     7800.00
00525             -20.00     7800.00
00526             -40.00     8200.00
00527             -60.00     8400.00
00528              80.00     8800.00
00529            -120.00     8600.00
00530             -20.00     9000.00
00531            -100.00     9200.00
00532             -60.00     9400.00
00533            -140.00     9800.00
00534             -20.00     9800.00
00535               0.00    10000.00
00536            -100.00    10200.00
00537             -80.00    10400.00
00538            -120.00    10600.00
00539            -100.00    10800.00
00540            -160.00    11000.00
00541            -100.00    11000.00
00542            -180.00    11400.00
00543            -180.00    11400.00
00544            -160.00    12000.00
00545            -160.00    11800.00
00546            -160.00    12000.00
00547            -200.00    12000.00
00548            -220.00    12200.00
00549            -260.00    12400.00
00550            -260.00    12400.00
00551            -220.00    12600.00
00552            -260.00    12600.00
00553            -320.00    13000.00
00554            -300.00    13000.00
00555            -320.00    13200.00
00556            -320.00    13200.00
00557            -340.00    13200.00
00558            -340.00    13400.00
00559            -400.00    13400.00
00560            -440.00    13600.00
00561            -460.00    13600.00
00562            -480.00    13800.00
00563            -520.00    13800.00
00564            -500.00    13800.00
00565            -560.00    13800.00
00566            -640.00    14000.00
00567            -660.00    14200.00
00568            -700.00    14000.00
00569            -740.00    14200.00
00570            -800.00    14200.00
00571            -820.00    14200.00
00572            -900.00    14200.00
00573            -980.00    14200.00
00574           -1040.00    14200.00
00575           -1100.00    14200.00
00576           -1200.00    14200.00
00577           -1280.00    14200.00
00578           -1360.00    14200.00
00579           -1460.00    14200.00
00580           -1600.00    14200.00
00581           -1700.00    14200.00
00582           -1800.00    14200.00
00583           -1920.00    14000.00
00584           -1980.00    14000.00
00585           -2080.00    14000.00
00586           -2160.00    14000.00
00587           -2220.00    13800.00
00588           -2240.00    14000.00
00589           -2240.00    13800.00
00590           -2220.00    13800.00
00591           -2160.00    13600.00
00592           -2100.00    13600.00
00593           -2020.00    13600.00
00594           -1940.00    13400.00
00595           -1820.00    13400.00
00596           -1700.00    13400.00
00597           -1540.00    13200.00
00598           -1440.00    13200.00
00599           -1300.00    13000.00
00600           -1220.00    13000.00
00601           -1120.00    12800.00
00602            -980.00    12800.00
00603            -900.00    12600.00
00604            -820.00    12400.00
00605            -760.00    12200.00
00606            -700.00    12000.00
00607            -660.00    12000.00
00608            -580.00    11800.00
00609            -560.00    11600.00
00610            -480.00    11600.00
00611            -420.00    11400.00
00612            -420.00    11200.00
00613            -400.00    11000.00
00614            -400.00    10800.00
00615            -340.00    10600.00
00616            -320.00    10600.00
00617            -320.00    10200.00
00618            -280.00    10000.00
00619            -300.00    10000.00
00620            -260.00     9800.00
00621            -260.00     9400.00
00622            -240.00     9200.00
00623            -220.00     9200.00
00624            -240.00     8800.00
00625            -220.00     8800.00
00626            -220.00     8400.00
00627            -220.00     8400.00
00628            -180.00     8200.00
00629            -180.00     7800.00
00630            -160.00     7600.00
00631            -180.00     7400.00
00632            -160.00     7200.00
00633            -160.00     6800.00
00634            -160.00     6600.00
00635            -140.00     6400.00
00636            -140.00     6200.00
00637            -160.00     6000.00
00638            -160.00     5800.00
00639            -140.00     5600.00
00640            -140.00     5200.00
00641            -140.00     5000.00
00642            -120.00     4600.00
00643            -140.00     4400.00
00644            -100.00     4200.00
00645            -100.00     4000.00
00646            -100.00     3600.00
00647            -120.00     3400.00
00648            -100.00     3200.00
00649            -100.00     2800.00
00650            -100.00     2600.00
00651            -100.00     2400.00
00652            -100.00     2000.00
00653             -80.00     1800.00
00654            -100.00     1400.00
00655            -100.00     1400.00
00656             -80.00     1200.00
00657             -80.00      800.00
00658             -80.00      600.00
00659             -80.00      400.00
00660             -80.00        0.00
00661             -60.00     -400.00
00662               0.00     -400.00
00663             120.00     -600.00
00664             140.00    -1000.00
00665              80.00    -1200.00
00666              40.00    -1400.00
00667              20.00    -1800.00
00668              60.00    -1800.00
00669             300.00    -2000.00
00670             960.00    -2600.00
00671             960.00    -3000.00
00672            -100.00    -3000.00
00673            -960.00    -3400.00
00674            -900.00    -3600.00
00675            -700.00    -3800.00
00676            -640.00    -3800.00
00677             220.00    -4400.00
00678             380.00    -4600.00
00679             240.00    -4400.00
00680             300.00    -5400.00
00681            -100.00    -5200.00
00682             220.00    -5400.00
00683             180.00    -6000.00
00684              20.00    -5800.00
00685             160.00    -6600.00
00686               0.00    -6200.00
00687             -80.00    -6800.00
00688            -100.00    -7000.00
00689             140.00    -7000.00
00690               0.00    -7600.00
00691             -40.00    -7600.00
00692             160.00    -8000.00
00693              80.00    -8000.00
00694              20.00    -8600.00
00695              40.00    -8600.00
00696             160.00    -8600.00
00697              60.00    -9200.00
00698              60.00    -9200.00
00699              80.00    -9400.00
00700              80.00    -9400.00
00701              20.00    -9800.00
00702              80.00   -10000.00
00703             160.00   -10000.00
00704              80.00   -10600.00
00705             140.00   -10600.00
00706             160.00   -10800.00
00707             140.00   -11000.00
00708             100.00   -11200.00
00709             160.00   -11200.00
00710             160.00   -11600.00
00711             120.00   -11600.00
00712             180.00   -11800.00
00713             220.00   -11800.00
00714             180.00   -12000.00
00715             200.00   -12200.00
00716             260.00   -12200.00
00717             220.00   -12400.00
00718             240.00   -12600.00
00719             300.00   -12600.00
00720             280.00   -13000.00
00721             260.00   -13000.00
00722             300.00   -13000.00
00723             340.00   -13200.00
00724             340.00   -13400.00
00725             400.00   -13400.00
00726             420.00   -13400.00
00727             420.00   -13400.00
00728             420.00   -13600.00
00729             460.00   -13600.00
00730             500.00   -13800.00
00731             540.00   -13600.00
00732             580.00   -14000.00
00733             640.00   -14000.00
00734             640.00   -14000.00
00735             660.00   -14000.00
00736             740.00   -14000.00
00737             780.00   -14200.00
00738             820.00   -14200.00
00739             900.00   -14000.00
00740             960.00   -14200.00
00741            1000.00   -14200.00
00742            1100.00   -14200.00
00743            1180.00   -14200.00
00744            1260.00   -14000.00
00745            1360.00   -14200.00
00746            1480.00   -14200.00
00747            1580.00   -14200.00
00748            1660.00   -14200.00
00749            1760.00   -14200.00
00750            1900.00   -14000.00
00751            1980.00   -14000.00
00752            2080.00   -13800.00
00753            2140.00   -14000.00
00754            2160.00   -13600.00
00755            2180.00   -13800.00
00756            2220.00   -13600.00
00757            2220.00   -13800.00
00758            2180.00   -13600.00
00759            2140.00   -13600.00
00760            2060.00   -13400.00
00761            1940.00   -13400.00
00762            1820.00   -13400.00
00763            1700.00   -13200.00
00764            1600.00   -13200.00
00765            1440.00   -13200.00
00766            1360.00   -13200.00
00767            1200.00   -13000.00
00768            1100.00   -12600.00
00769             980.00   -12600.00
00770             900.00   -12600.00
00771             820.00   -12200.00
00772             760.00   -12200.00
00773             700.00   -12200.00
00774             640.00   -11800.00
00775             560.00   -11800.00
00776             520.00   -11600.00
00777             480.00   -11600.00
00778             460.00   -11400.00
00779             420.00   -11000.00
00780             400.00   -11000.00
00781             360.00   -11000.00
00782             320.00   -10600.00
00783             300.00   -10600.00
00784             300.00   -10400.00
00785             280.00   -10000.00
00786             260.00   -10000.00
00787             240.00    -9800.00
00788             220.00    -9600.00
00789             220.00    -9400.00
00790             220.00    -9200.00
00791             220.00    -9000.00
00792             180.00    -8800.00
00793             220.00    -8600.00
00794             160.00    -8400.00
00795             180.00    -8200.00
00796             160.00    -7800.00
00797             160.00    -7600.00
00798             160.00    -7200.00
00799             160.00    -7000.00
00800             140.00    -7000.00
00801             140.00    -6800.00
00802             140.00    -6600.00
00803             140.00    -6200.00
00804             140.00    -6000.00
00805             140.00    -5800.00
00806             140.00    -5400.00
00807             140.00    -5200.00
00808             100.00    -5000.00
00809             100.00    -4600.00
00810             100.00    -4600.00
00811             140.00    -4200.00
00812             140.00    -4000.00
00813             100.00    -3800.00
00814              80.00    -3400.00
00815              80.00    -3200.00
00816              80.00    -2800.00
00817              80.00    -2800.00
00818              80.00    -2400.00
00819              80.00    -2200.00
00820              80.00    -1800.00
00821              80.00    -1800.00
00822              80.00    -1400.00
00823              60.00    -1000.00
00824              80.00     -800.00
00825              60.00     -600.00
00826              60.00     -400.00
00827              60.00     -200.00
00828              60.00      200.00
00829             100.00      400.00
00830             180.00      600.00
00831             240.00     1000.00
00832             220.00     1200.00
00833             160.00     1400.00
00834             140.00     1600.00
00835             180.00     2000.00
00836             560.00     2200.00
00837            1380.00     2800.00
00838             940.00     2800.00
00839            -500.00     3000.00
00840           -1240.00     3000.00
00841           -1020.00     3400.00
00842            -880.00     3800.00
00843             220.00     4000.00
00844             660.00     4000.00
00845             240.00     4600.00
00846             320.00     5000.00
00847            -260.00     4600.00
00848             100.00     5800.00
00849             180.00     5400.00
00850            -100.00     5800.00
00851             320.00     6000.00
00852               0.00     6000.00
00853            -100.00     6800.00
00854            -200.00     6200.00
00855              60.00     7400.00
00856              60.00     7200.00
00857            -100.00     7000.00
00858             100.00     7800.00
00859             -60.00     7800.00
00860               0.00     8200.00
00861             -80.00     8000.00
00862              60.00     8600.00
00863             -60.00     8800.00
00864             -80.00     8800.00
00865             -60.00     9400.00
00866             -80.00     9400.00
00867             -80.00     9600.00
00868            -100.00     9800.00
00869              40.00    10000.00
00870            -100.00    10200.00
00871             -80.00    10200.00
00872            -140.00    10600.00
00873            -100.00    10800.00
00874            -160.00    11000.00
00875            -100.00    11000.00
00876            -160.00    11400.00
00877            -200.00    11400.00
00878            -160.00    11600.00
00879            -160.00    12000.00
00880            -160.00    11800.00
00881            -180.00    12000.00
00882            -220.00    12200.00
00883            -260.00    12400.00
00884            -240.00    12400.00
00885            -220.00    12600.00
00886            -240.00    12600.00
00887            -300.00    13000.00
00888            -320.00    13000.00
00889            -320.00    13200.00
00890            -320.00    13000.00
00891            -320.00    13200.00
00892            -320.00    13400.00
00893            -380.00    13400.00
00894            -420.00    13400.00
00895            -460.00    13600.00
00896            -480.00    13600.00
00897            -520.00    13800.00
00898            -500.00    13800.00
00899            -540.00    14000.00
00900            -600.00    13800.00
00901            -660.00    14000.00
00902            -680.00    14000.00
00903            -720.00    14200.00
00904            -800.00    14200.00
00905            -800.00    14200.00
00906            -880.00    14200.00
00907            -960.00    14000.00
00908           -1020.00    14200.00
00909           -1100.00    14400.00
00910           -1140.00    14200.00
00911           -1260.00    14200.00
00912           -1340.00    14200.00
00913           -1440.00    14200.00
00914           -1540.00    14200.00
00915           -1680.00    14200.00
00916           -1760.00    14000.00
00917           -1860.00    14200.00
00918           -1940.00    14000.00
00919           -2020.00    14200.00
00920           -2120.00    14000.00
00921           -2180.00    13800.00
00922           -2220.00    13800.00
00923           -2240.00    13800.00
00924           -2220.00    13800.00
00925           -2200.00    13800.00
00926           -2140.00    13800.00
00927           -2060.00    13800.00
00928           -1960.00    13400.00
00929           -1860.00    13400.00
00930           -1740.00    13200.00
00931           -1600.00    13200.00
00932           -1460.00    13200.00
00933           -1360.00    13000.00
00934           -1260.00    13000.00
00935           -1140.00    12800.00
00936           -1040.00    12600.00
00937            -940.00    12600.00
00938            -860.00    12400.00
00939            -780.00    12400.00
00940            -720.00    12200.00
00941            -660.00    12000.00
00942            -620.00    11800.00
00943            -560.00    12000.00
00944            -500.00    11600.00
00945            -460.00    11400.00
00946            -420.00    11000.00
00947            -400.00    11000.00
00948            -400.00    10800.00
00949            -360.00    10800.00
00950            -320.00    10600.00
00951            -320.00    10200.00
00952            -300.00    10200.00
00953            -260.00    10000.00
00954            -260.00     9800.00
00955            -260.00     9800.00
00956            -240.00     9200.00
00957            -240.00     9200.00
00958            -220.00     9000.00
00959            -220.00     8600.00
00960            -220.00     8600.00
00961            -200.00     8200.00
00962            -220.00     8200.00
00963            -180.00     7800.00
00964            -180.00     7600.00
00965            -160.00     7400.00
00966            -180.00     7200.00
00967            -160.00     7000.00
00968            -160.00     6600.00
00969            -160.00     6600.00
00970            -160.00     6200.00
00971            -160.00     6000.00
00972            -160.00     5800.00
00973            -140.00     5600.00
00974            -160.00     5400.00
00975            -140.00     5000.00
00976            -140.00     4800.00
00977            -140.00     4400.00
00978            -100.00     4200.00
00979            -100.00     4000.00
00980            -100.00     3800.00
00981            -120.00     3600.00
00982            -120.00     3400.00
00983            -100.00     3000.00
00984            -100.00     2800.00
00985            -100.00     2400.00
00986            -100.00     2200.00
00987            -100.00     2000.00
00988            -100.00     1800.00
00989             -80.00     1400.00
00990             -80.00     1200.00
00991            -100.00     1000.00
00992            -100.00      600.00
00993            -100.00      400.00
00994             -80.00      200.00
00995             -60.00     -200.00
00996             -20.00     -400.00
00997              80.00     -600.00
00998             100.00     -800.00
00999             100.00    -1000.00
01000              60.00    -1400.00
01001              20.00    -1600.00
01002              40.00    -1800.00
01003             160.00    -2200.00
01004             660.00    -2200.00
01005            1140.00    -2800.00
01006             340.00    -3200.00
01007            -740.00    -3400.00
01008            -980.00    -3600.00
01009            -720.00    -3600.00
01010            -740.00    -3800.00
01011            -160.00    -4200.00
01012             480.00    -5000.00
01013             180.00    -4400.00
01014             340.00    -5000.00
01015               0.00    -5400.00
01016              20.00    -5000.00
01017             300.00    -6000.00
01018               0.00    -5800.00
01019             140.00    -6400.00
01020              60.00    -6200.00
01021             -40.00    -6600.00
01022            -160.00    -7200.00
01023              60.00    -6800.00
01024             100.00    -7400.00
01025            -100.00    -7400.00
01026             100.00    -7800.00
01027             100.00    -8000.00
01028              20.00    -8200.00
01029              20.00    -8600.00
01030             140.00    -8400.00
01031             100.00    -9000.00
01032               0.00    -9400.00
01033              60.00    -9400.00
01034              80.00    -9600.00
01035              80.00    -9800.00
01036              80.00   -10000.00
01037             160.00   -10000.00
01038              80.00   -10400.00
01039              80.00   -10600.00
01040             160.00   -10800.00
01041             160.00   -11000.00
01042             100.00   -11000.00
01043             140.00   -11400.00
01044             160.00   -11400.00
01045             100.00   -11600.00
01046             140.00   -11800.00
01047             220.00   -11800.00
01048             200.00   -12000.00
01049             180.00   -12200.00
01050             220.00   -12200.00
01051             220.00   -12400.00
01052             220.00   -12600.00
01053             280.00   -12600.00
01054             320.00   -12800.00
01055             280.00   -13000.00
01056             300.00   -13000.00
01057             340.00   -13000.00
01058             360.00   -13200.00
01059             360.00   -13400.00
01060             420.00   -13400.00
01061             420.00   -13400.00
01062             400.00   -13600.00
01063             460.00   -13600.00
01064             480.00   -13600.00
01065             520.00   -13800.00
01066             560.00   -13800.00
01067             620.00   -13800.00
01068             640.00   -13800.00
01069             640.00   -14000.00
01070             720.00   -14000.00
01071             780.00   -14200.00
01072             800.00   -14200.00
01073             860.00   -14200.00
01074             940.00   -14200.00
01075             980.00   -14200.00
01076            1040.00   -14200.00
01077            1140.00   -14200.00
01078            1200.00   -14200.00
01079            1300.00   -14200.00
01080            1440.00   -14200.00
01081            1540.00   -14200.00
01082            1640.00   -14000.00
01083            1740.00   -14200.00
01084            1840.00   -14000.00
01085            1940.00   -14000.00
01086            2020.00   -14000.00
01087            2140.00   -14000.00
01088            2160.00   -13800.00
01089            2180.00   -13800.00
01090            2220.00   -13600.00
01091            2220.00   -13800.00
01092            2200.00   -13800.00
01093            2140.00   -13600.00
01094            2080.00   -13600.00
01095            1980.00   -13400.00
01096            1840.00   -13400.00
01097            1740.00   -13400.00
01098            1620.00   -13200.00
01099            1500.00   -13200.00
01100            1380.00   -13000.00
01101            1260.00   -13000.00
01102            1120.00   -12600.00
01103            1020.00   -12600.00
01104             940.00   -12600.00
01105             860.00   -12400.00
01106             780.00   -12200.00
01107             720.00   -12200.00
01108             640.00   -12000.00
01109             580.00   -11800.00
01110             540.00   -11800.00
01111             500.00   -11600.00
01112             460.00   -11400.00
01113             420.00   -11400.00
01114             400.00   -11000.00
01115             380.00   -11000.00
01116             320.00   -10800.00
01117             320.00   -10600.00
01118             300.00   -10200.00
01119             280.00   -10200.00
01120             280.00   -10000.00
01121             260.00    -9800.00
01122             240.00    -9600.00
01123             220.00    -9400.00
01124             220.00    -9200.00
01125             220.00    -9000.00
01126             200.00    -8800.00
01127             220.00    -8600.00
01128             160.00    -8400.00
01129             160.00    -8200.00
01130             160.00    -7800.00
01131             160.00    -7800.00
01132             160.00    -7400.00
01133             160.00    -7200.00
01134             140.00    -7000.00
01135             140.00    -6600.00
01136             140.00    -6600.00
01137             140.00    -6400.00
01138             140.00    -6200.00
01139             120.00    -6000.00
01140             140.00    -5600.00
01141             100.00    -5400.00
01142             100.00    -5000.00
01143             100.00    -5000.00
01144             120.00    -4600.00
01145             100.00    -4400.00
01146             100.00    -4200.00
01147             100.00    -3800.00
01148             100.00    -3600.00
01149             100.00    -3400.00
01150              80.00    -3000.00
01151              80.00    -2800.00
01152              80.00    -2600.00
01153              80.00    -2200.00
01154              80.00    -2200.00
01155              80.00    -1800.00
01156              60.00    -1400.00
01157              60.00    -1200.00
01158              60.00    -1000.00
01159              80.00     -600.00
01160              60.00     -400.00
01161              60.00     -200.00
01162              60.00        0.00
01163              80.00      200.00
01164             160.00      600.00
01165             240.00     1000.00
01166             220.00     1200.00
01167             160.00     1400.00
01168             140.00     1400.00
01169             160.00     1800.00
01170             340.00     2000.00
01171            1140.00     2400.00
01172            1280.00     2800.00
01173              20.00     3000.00
01174           -1120.00     3000.00
01175           -1140.00     3400.00
01176            -960.00     3800.00
01177            -320.00     4000.00
01178             740.00     4000.00
01179             320.00     4400.00
01180             320.00     5000.00
01181             -20.00     4600.00
01182            -140.00     5600.00
01183             320.00     5600.00
01184            -100.00     5400.00
01185             220.00     6200.00
01186             160.00     6000.00
01187            -100.00     6600.00
01188            -160.00     6600.00
01189             -80.00     6800.00
01190             160.00     7600.00
01191            -140.00     7000.00
01192              80.00     7800.00
01193               0.00     7600.00
01194             -20.00     8200.00
01195             -80.00     8200.00
01196               0.00     8400.00
01197               0.00     8800.00
01198            -100.00     8600.00
01199             -20.00     9400.00
01200            -100.00     9400.00
01201             -60.00     9600.00
01202            -140.00     9600.00
01203               0.00    10000.00
01204             -60.00    10200.00
01205            -100.00    10200.00
01206            -100.00    10600.00
01207            -120.00    10600.00
01208            -140.00    10800.00
01209            -140.00    10800.00
01210            -100.00    11400.00
01211            -180.00    11400.00
01212            -160.00    11400.00
01213            -160.00    11800.00
01214            -140.00    12000.00
01215            -180.00    12000.00
01216            -180.00    12200.00
01217            -240.00    12400.00
01218            -260.00    12400.00
01219            -240.00    12400.00
01220            -240.00    12600.00
01221            -260.00    12800.00
01222            -320.00    13000.00
01223            -320.00    13000.00
01224            -320.00    13200.00
01225            -340.00    13200.00
01226            -340.00    13400.00
01227            -360.00    13400.00
01228            -420.00    13400.00
01229            -460.00    13600.00
01230            -480.00    13800.00
01231            -500.00    13800.00
01232            -500.00    13800.00
01233            -520.00    14000.00
01234            -580.00    13800.00
01235            -640.00    14000.00
01236            -660.00    14000.00
01237            -720.00    14000.00
01238            -780.00    14000.00
01239            -800.00    14200.00
01240            -840.00    14000.00
01241            -940.00    14200.00
01242           -1000.00    14200.00
01243           -1060.00    14200.00
01244           -1140.00    14200.00
01245           -1220.00    14200.00
01246           -1300.00    14200.00
01247           -1380.00    14200.00
01248           -1500.00    14200.00
01249           -1620.00    14200.00
01250           -1740.00    14000.00
01251           -1840.00    14200.00
01252           -1920.00    14200.00
01253           -2000.00    14200.00
01254           -2060.00    14000.00
01255           -2180.00    14000.00
01256           -2200.00    14000.00
01257           -2220.00    13800.00
01258           -2240.00    13800.00
01259           -2220.00    13800.00
01260           -2160.00    13600.00
01261           -2080.00    13600.00
01262           -2000.00    13600.00
01263           -1900.00    13400.00
01264           -1780.00    13400.00
01265           -1660.00    13200.00
01266           -1520.00    13200.00
01267           -1380.00    13200.00
01268           -1280.00    13000.00
01269           -1180.00    13000.00
01270           -1060.00    12600.00
01271            -980.00    12600.00
01272            -880.00    12600.00
01273            -800.00    12200.00
01274            -740.00    12400.00
01275            -660.00    12200.00
01276            -640.00    12000.00
01277            -580.00    11600.00
01278            -500.00    11800.00
01279            -480.00    11400.00
01280            -420.00    11400.00
01281            -420.00    11200.00
01282            -400.00    11000.00
01283            -380.00    10800.00
01284            -340.00    10600.00
01285            -320.00    10400.00
01286            -300.00    10200.00
01287            -300.00    10000.00
01288            -280.00     9800.00
01289            -260.00     9800.00
01290            -240.00     9400.00
01291            -240.00     9200.00
01292            -240.00     9000.00
01293            -220.00     9000.00
01294            -180.00     8600.00
01295            -220.00     8400.00
01296            -220.00     8200.00
01297            -200.00     8000.00
01298            -180.00     7800.00
01299            -160.00     7600.00
01300            -160.00     7400.00
01301            -160.00     7000.00
01302            -160.00     6800.00
01303            -160.00     6600.00
01304            -160.00     6400.00
01305            -140.00     6200.00
01306            -140.00     5800.00
01307            -140.00     5600.00
01308            -160.00     5400.00
01309            -140.00     5200.00
01310            -140.00     4800.00
01311            -120.00     4600.00
01312            -100.00     4400.00
01313            -100.00     4200.00
01314            -100.00     3800.00
01315            -100.00     3600.00
01316            -100.00     3400.00
01317            -100.00     3000.00
01318            -100.00     2800.00
01319            -100.00     2600.00
01320            -100.00     2200.00
01321            -100.00     2000.00
01322            -100.00     1800.00
01323            -100.00     1600.00
01324             -80.00     1200.00
01325            -100.00     1000.00
01326             -80.00      800.00
01327             -80.00      400.00
01328             -80.00      200.00
01329             -60.00        0.00
01330             -40.00     -400.00
01331              60.00     -400.00
01332             140.00     -800.00
01333             120.00    -1000.00
01334              80.00    -1200.00
01335              60.00    -1400.00
01336              20.00    -1800.00
01337              80.00    -2000.00
01338             420.00    -2200.00
01339            1100.00    -2600.00
01340             740.00    -3000.00
01341            -400.00    -3000.00
01342           -1020.00    -3600.00
01343            -800.00    -3600.00
01344            -720.00    -3800.00
01345            -500.00    -3800.00
01346             400.00    -4600.00
01347             260.00    -4600.00
01348             300.00    -4600.00
01349             180.00    -5400.00
01350            -100.00    -5200.00
01351             300.00    -5600.00
01352             100.00    -5800.00
01353              80.00    -6200.00
01354             140.00    -6600.00
01355             -20.00    -6200.00
01356            -140.00    -7200.00
01357             -60.00    -6800.00
01358             140.00    -7200.00
01359             -80.00    -7600.00
01360               0.00    -7600.00
01361             160.00    -8200.00
01362              40.00    -8000.00
01363               0.00    -8600.00
01364              80.00    -8600.00
01365             160.00    -8600.00
01366              40.00    -9200.00
01367              20.00    -9200.00
01368              80.00    -9400.00
01369              80.00    -9400.00
01370              60.00   -10000.00
01371             140.00   -10000.00
01372             140.00   -10200.00
01373              80.00   -10600.00
01374             140.00   -10600.00
01375             160.00   -10600.00
01376             100.00   -11000.00
01377             120.00   -11400.00
01378             160.00   -11600.00
01379             140.00   -11400.00
01380             120.00   -11800.00
01381             200.00   -11800.00
01382             220.00   -11800.00
01383             180.00   -12200.00
01384             220.00   -12200.00
01385             240.00   -12200.00
01386             220.00   -12400.00
01387             260.00   -12600.00
01388             300.00   -12600.00
01389             300.00   -12800.00
01390             300.00   -13000.00
01391             320.00   -13000.00
01392             340.00   -13200.00
01393             380.00   -13200.00
01394             400.00   -13400.00
01395             420.00   -13400.00
01396             420.00   -13600.00
01397             420.00   -13600.00
01398             480.00   -13600.00
01399             500.00   -13600.00
01400             540.00   -13800.00
01401             600.00   -13800.00
01402             640.00   -14000.00
01403             640.00   -14000.00
01404             700.00   -14000.00
01405             780.00   -14000.00
01406             780.00   -14000.00
01407             860.00   -14000.00
01408             940.00   -14200.00
01409             960.00   -14200.00
01410            1020.00   -14200.00
01411            1120.00   -14200.00
01412            1200.00   -14200.00
01413            1280.00   -14200.00
01414            1400.00   -14200.00
01415            1500.00   -14200.00
01416            1580.00   -14200.00
01417            1680.00   -14000.00
01418            1820.00   -14200.00
01419            1900.00   -14200.00
01420            1980.00   -14000.00
01421            2080.00   -14000.00
01422            2160.00   -14000.00
01423            2180.00   -13800.00
01424            2200.00   -14000.00
01425            2220.00   -13600.00
01426            2180.00   -13600.00
01427            2160.00   -13800.00
01428            2120.00   -13600.00
01429            2000.00   -13400.00
01430            1900.00   -13400.00
01431            1780.00   -13400.00
01432            1660.00   -13400.00
01433            1540.00   -13200.00
01434            1420.00   -13200.00
01435            1300.00   -13000.00
01436            1180.00   -12800.00
01437            1060.00   -12600.00
01438             980.00   -12600.00
01439             900.00   -12400.00
01440             820.00   -12400.00
01441             720.00   -12400.00
01442             660.00   -12200.00
01443             620.00   -11800.00
01444             540.00   -11800.00
01445             540.00   -11600.00
01446             500.00   -11400.00
01447             460.00   -11400.00
01448             420.00   -11000.00
01449             380.00   -11000.00
01450             320.00   -10800.00
01451             320.00   -10600.00
01452             320.00   -10600.00
01453             300.00   -10200.00
01454             300.00   -10000.00
01455             260.00    -9800.00
01456             240.00    -9600.00
01457             240.00    -9600.00
01458             220.00    -9400.00
01459             220.00    -9000.00
01460             220.00    -9000.00
01461             220.00    -8600.00
01462             220.00    -8400.00
01463             180.00    -8200.00
01464             160.00    -8000.00
01465             160.00    -8000.00
01466             160.00    -7400.00
01467             160.00    -7200.00
01468             160.00    -7000.00
01469             160.00    -6800.00
01470             140.00    -6600.00
01471             140.00    -6400.00
01472             140.00    -6200.00
01473             140.00    -6000.00
01474             140.00    -5600.00
01475             140.00    -5600.00
01476             120.00    -5200.00
01477             100.00    -5000.00
01478             100.00    -4600.00
01479             100.00    -4400.00
01480             100.00    -4200.00
01481             100.00    -3800.00
01482             100.00    -3600.00
01483              80.00    -3400.00
01484              80.00    -3200.00
01485              80.00    -3000.00
01486              80.00    -2600.00
01487              60.00    -2400.00
01488              80.00    -2000.00
01489              80.00    -1800.00
01490              80.00    -1800.00
01491              60.00    -1400.00
01492              60.00    -1000.00
01493              80.00     -800.00
01494              80.00     -600.00
01495              60.00     -200.00
01496              80.00        0.00
01497              60.00      400.00
01498             140.00      600.00
01499             220.00      800.00
01500             240.00     1000.00
01501             180.00     1200.00
01502             160.00     1400.00
01503             140.00     1800.00
01504             240.00     1800.00
01505             800.00     2400.00
01506            1420.00     2800.00
01507             580.00     2800.00
01508            -800.00     3000.00
01509           -1220.00     3000.00
01510            -960.00     3600.00
01511            -740.00     4200.00
01512             500.00     4200.00
01513             540.00     4200.00
01514             280.00     5000.00
01515             220.00     4600.00
01516            -260.00     5000.00
01517             260.00     5800.00
01518              20.00     5200.00
01519              20.00     6000.00
01520             300.00     6000.00
01521             -80.00     6200.00
01522            -100.00     6800.00
01523            -180.00     6400.00
01524             160.00     7400.00
01525             -40.00     7000.00
01526             -20.00     7400.00
01527              80.00     7800.00
01528             -20.00     8000.00
01529             -20.00     8200.00
01530             -60.00     8000.00
01531              60.00     9000.00
01532            -100.00     8600.00
01533             -60.00     9000.00
01534            -100.00     9200.00
01535             -80.00     9400.00
01536            -100.00     9800.00
01537             -40.00     9800.00
01538               0.00    10200.00
01539            -140.00    10200.00
01540             -80.00    10600.00
01541            -140.00    10800.00
01542            -100.00    10800.00
01543            -160.00    10800.00
01544            -100.00    11000.00
01545            -180.00    11200.00
01546            -220.00    11400.00
01547            -160.00    11800.00
01548            -160.00    11800.00
01549            -160.00    12000.00
01550            -180.00    12200.00
01551            -220.00    12200.00
01552            -260.00    12200.00
01553            -260.00    12600.00
01554            -240.00    12600.00
01555            -260.00    12800.00
01556            -320.00    13000.00
01557            -340.00    13000.00
01558            -320.00    13000.00
01559            -320.00    13200.00
01560            -320.00    13400.00
01561            -340.00    13400.00
01562            -420.00    13400.00
01563            -460.00    13400.00
01564            -460.00    13600.00
01565            -500.00    13800.00
01566            -520.00    13800.00
01567            -500.00    13800.00
01568            -560.00    13800.00
01569            -620.00    14000.00
01570            -660.00    14000.00
01571            -700.00    14000.00
01572            -740.00    14200.00
01573            -780.00    14200.00
01574            -800.00    14200.00
01575            -900.00    14000.00
01576            -980.00    14200.00
01577           -1040.00    14200.00
01578           -1100.00    14400.00
01579           -1180.00    14200.00
01580           -1280.00    14200.00
01581           -1340.00    14200.00
01582           -1440.00    14200.00
01583           -1580.00    14200.00
01584           -1700.00    14200.00
01585           -1780.00    14200.00
01586           -1900.00    14200.00
01587           -1980.00    14200.00
01588           -2020.00    14000.00
01589           -2140.00    14000.00
01590           -2180.00    14000.00
01591           -2220.00    13800.00
01592           -2240.00    13800.00
01593           -2220.00    13800.00
01594           -2160.00    13800.00
01595           -2100.00    13800.00
01596           -2020.00    13400.00
01597           -1940.00    13400.00
01598           -1840.00    13400.00
01599           -1700.00    13200.00
01600           -1580.00    13200.00
01601           -1420.00    13000.00
01602           -1340.00    13000.00
01603           -1220.00    13000.00
01604           -1120.00    12600.00
01605           -1020.00    12600.00
01606            -940.00    12400.00
01607            -820.00    12400.00
01608            -740.00    12200.00
01609            -700.00    12200.00
01610            -640.00    12000.00
01611            -600.00    11800.00
01612            -540.00    11600.00
01613            -500.00    11600.00
01614            -460.00    11400.00
01615            -420.00    11400.00
01616            -420.00    10800.00
01617            -400.00    10800.00
01618            -340.00    10600.00
01619            -320.00    10200.00
01620            -320.00    10400.00
01621            -300.00    10200.00
01622            -280.00    10000.00
01623            -300.00     9800.00
01624            -260.00     9400.00
01625            -240.00     9200.00
01626            -260.00     9200.00
01627            -240.00     9000.00
01628            -220.00     8800.00
01629            -220.00     8400.00
01630            -220.00     8200.00
01631            -200.00     7800.00
01632            -180.00     7800.00
01633            -180.00     7600.00
01634            -180.00     7400.00
01635            -160.00     7000.00
01636            -160.00     6800.00
01637            -160.00     6600.00
01638            -160.00     6400.00
01639            -140.00     6200.00
01640            -120.00     6000.00
01641            -100.00     5800.00
01642            -160.00     5400.00
01643            -180.00     5200.00
01644            -120.00     5000.00
01645            -200.00     4800.00
01646            -220.00     4400.00
01647            -220.00     4200.00
01648             -60.00     4200.00
01649             -20.00     3800.00
01650              20.00     3400.00
01651               0.00     3000.00
01652             -60.00     3000.00
01653            -140.00     2800.00
01654            -240.00     2600.00
01655            -220.00     2200.00
01656            -220.00     1800.00
01657            -100.00     1800.00
01658             -40.00     1200.00
01659               0.00     1200.00
01660              20.00      800.00
01661               0.00      600.00
01662               0.00      400.00
01663             -80.00        0.00
01664            -100.00     -200.00
01665             -80.00     -400.00
01666              20.00     -600.00
01667              80.00    -1000.00
01668             100.00    -1200.00
01669             100.00    -1400.00
01670              80.00    -1800.00
01671             140.00    -1800.00
01672             300.00    -2200.00
01673             880.00    -2600.00
01674            1000.00    -3200.00
01675             -40.00    -3200.00
01676           -1020.00    -3400.00
01677            -980.00    -3600.00
01678            -720.00    -3600.00
01679            -660.00    -3800.00
01680             160.00    -4400.00
01681             500.00    -4600.00
01682             240.00    -4400.00
01683             320.00    -5200.00
01684            -140.00    -5400.00
01685              80.00    -5400.00
01686             160.00    -6000.00
01687             -60.00    -6000.00
01688             160.00    -6600.00
01689              60.00    -6200.00
01690             -20.00    -6800.00
01691             -80.00    -7000.00
01692             160.00    -7000.00
01693              40.00    -7600.00
01694            -100.00    -7600.00
01695              80.00    -8200.00
01696              20.00    -8000.00
01697               0.00    -8400.00
01698              60.00    -8800.00
01699             220.00    -8600.00
01700             120.00    -9200.00
01701              60.00    -9200.00
01702              60.00    -9400.00
01703              80.00    -9400.00
01704              20.00    -9800.00
01705              60.00   -10000.00
01706             140.00   -10000.00
01707              80.00   -10400.00
01708             100.00   -10600.00
01709             180.00   -10600.00
01710             160.00   -10800.00
01711             120.00   -11200.00
01712             180.00   -11200.00
01713             140.00   -11400.00
01714             100.00   -11600.00
01715             140.00   -11600.00
01716             220.00   -11800.00
01717             180.00   -12000.00
01718             220.00   -12200.00
01719             240.00   -12200.00
01720             240.00   -12400.00
01721             240.00   -12600.00
01722             300.00   -12800.00
01723             260.00   -12800.00
01724             260.00   -12800.00
01725             280.00   -13000.00
01726             340.00   -13200.00
01727             380.00   -13200.00
01728             400.00   -13200.00
01729             440.00   -13400.00
01730             460.00   -13400.00
01731             420.00   -13600.00
01732             460.00   -13600.00
01733             480.00   -13600.00
01734             500.00   -13800.00
01735             560.00   -13800.00
01736             620.00   -14000.00
01737             640.00   -14000.00
01738             680.00   -14000.00
01739             740.00   -14000.00
01740             800.00   -14200.00
01741             820.00   -14000.00
01742             900.00   -14200.00
01743             960.00   -14200.00
01744            1000.00   -14200.00
01745            1060.00   -14200.00
01746            1180.00   -14200.00
01747            1260.00   -14200.00
01748            1360.00   -14200.00
01749            1460.00   -14200.00
01750            1560.00   -14200.00
01751            1620.00   -14200.00
01752            1760.00   -14000.00
01753            1860.00   -14000.00
01754            1940.00   -14000.00
01755            2060.00   -14200.00
01756            2140.00   -14000.00
01757            2180.00   -14000.00
01758            2200.00   -14000.00
01759            2220.00   -13600.00
01760            2220.00   -13600.00
01761            2160.00   -13800.00
01762            2120.00   -13600.00
01763            2060.00   -13400.00
01764            1920.00   -13400.00
01765            1820.00   -13400.00
01766            1700.00   -13200.00
01767            1580.00   -13200.00
01768            1460.00   -13200.00
01769            1340.00   -13000.00
01770            1220.00   -12800.00
01771            1120.00   -12600.00
01772            1000.00   -12600.00
01773             940.00   -12600.00
01774             860.00   -12400.00
01775             780.00   -12200.00
01776             720.00   -12200.00
01777             620.00   -11800.00
01778             560.00   -11800.00
01779             540.00   -11600.00
01780             480.00   -11400.00
01781             460.00   -11400.00
01782             420.00   -11200.00
01783             400.00   -11000.00
01784             380.00   -11000.00
01785             320.00   -10600.00
01786             320.00   -10600.00
01787             300.00   -10200.00
01788             300.00   -10200.00
01789             260.00    -9800.00
01790             240.00    -9800.00
01791             240.00    -9400.00
01792             220.00    -9400.00
01793             220.00    -9200.00
01794             220.00    -9000.00
01795             220.00    -8800.00
01796             180.00    -8600.00
01797             180.00    -8400.00
01798             160.00    -8200.00
01799             160.00    -7800.00
01800             160.00    -7600.00
01801             160.00    -7400.00
01802             160.00    -7200.00
01803             160.00    -7000.00
01804             140.00    -6600.00
01805             140.00    -6600.00
01806             140.00    -6200.00
01807             140.00    -6000.00
01808             140.00    -6000.00
01809             120.00    -5600.00
01810             120.00    -5400.00
01811             100.00    -5000.00
01812             100.00    -4600.00
01813             100.00    -4600.00
01814              80.00    -4200.00
01815             100.00    -3800.00
01816             100.00    -3800.00
01817              80.00    -3600.00
01818              80.00    -3200.00
01819              80.00    -3000.00
01820              80.00    -2800.00
01821              80.00    -2600.00
01822              80.00    -2200.00
01823              80.00    -2000.00
01824              80.00    -1800.00
01825              60.00    -1400.00
01826              80.00    -1200.00
01827              60.00     -800.00
01828              80.00     -600.00
01829              60.00     -400.00
01830              60.00     -200.00
01831              60.00      200.00
01832             100.00      400.00
01833             180.00      600.00
01834             260.00     1000.00
01835             220.00     1000.00
01836             160.00     1400.00
01837             140.00     1600.00
01838             160.00     1800.00
01839             480.00     2200.00
01840            1340.00     2600.00
01841            1060.00     2600.00
01842            -340.00     3000.00
01843           -1220.00     3000.00
01844           -1040.00     3400.00
01845            -920.00     3800.00
01846              60.00     4200.00
01847             720.00     4200.00
01848             240.00     4600.00
01849             340.00     5000.00
01850            -180.00     4400.00
01851              20.00     5800.00
01852             240.00     5400.00
01853            -100.00     5600.00
01854             300.00     6200.00
01855              60.00     5800.00
01856            -100.00     6800.00
01857            -200.00     6200.00
01858              20.00     7200.00
01859              80.00     7400.00
01860            -100.00     7000.00
01861             100.00     8000.00
01862             -20.00     7600.00
01863               0.00     8200.00
01864             -80.00     8200.00
01865              60.00     8600.00
01866             -20.00     9000.00
01867             -80.00     8800.00
01868             -20.00     9400.00
01869            -100.00     9400.00
01870             -80.00     9600.00
01871            -140.00     9800.00
01872               0.00    10200.00
01873            -100.00    10200.00
01874            -100.00    10600.00
01875            -100.00    10600.00
01876            -100.00    10800.00
01877            -140.00    10800.00
01878            -120.00    11000.00
01879            -160.00    11200.00
01880            -240.00    11400.00
01881            -180.00    11600.00
01882            -160.00    11800.00
01883            -160.00    12000.00
01884            -180.00    12200.00
01885            -220.00    12200.00
01886            -260.00    12200.00
01887            -260.00    12600.00
01888            -240.00    12600.00
01889            -220.00    12600.00
01890            -320.00    12800.00
01891            -320.00    13000.00
01892            -340.00    13200.00
01893            -340.00    13000.00
01894            -340.00    13200.00
01895            -320.00    13400.00
01896            -380.00    13400.00
01897            -420.00    13400.00
01898            -460.00    13600.00
01899            -500.00    13800.00
01900            -500.00    13800.00
01901            -500.00    13800.00
01902            -540.00    13800.00
01903            -580.00    14000.00
01904            -640.00    14000.00
01905            -680.00    14200.00
01906            -720.00    14200.00
01907            -780.00    14200.00
01908            -800.00    14000.00
01909            -880.00    14200.00
01910            -960.00    14200.00
01911           -1020.00    14200.00
01912           -1060.00    14400.00
01913           -1140.00    14200.00
01914           -1220.00    14200.00
01915           -1320.00    14200.00
01916           -1420.00    14200.00
01917           -1520.00    14200.00
01918           -1660.00    14200.00
01919           -1760.00    14200.00
01920           -1860.00    14200.00
01921           -1940.00    14200.00
01922           -2020.00    14200.00
01923           -2100.00    14000.00
01924           -2160.00    14000.00
01925           -2220.00    14000.00
01926           -2240.00    14000.00
01927           -2220.00    13800.00
01928           -2180.00    13800.00
01929           -2140.00    13800.00
01930           -2080.00    13600.00
01931           -1980.00    13400.00
01932           -1900.00    13400.00
01933           -1760.00    13400.00
01934           -1620.00    13400.00
01935           -1460.00    13200.00
01936           -1360.00    13200.00
01937           -1280.00    13000.00
01938           -1160.00    12800.00
01939           -1060.00    12800.00
01940            -960.00    12600.00
01941            -880.00    12400.00
01942            -800.00    12200.00
01943            -720.00    12200.00
01944            -680.00    12000.00
01945            -620.00    11800.00
01946            -580.00    11800.00
01947            -520.00    11400.00
01948            -480.00    11600.00
01949            -420.00    11200.00
01950            -420.00    11000.00
01951            -400.00    10800.00
01952            -380.00    10800.00
01953            -340.00    10600.00
01954            -320.00    10200.00
01955            -300.00    10200.00
01956            -300.00    10000.00
01957            -260.00     9800.00
01958            -260.00     9800.00
01959            -240.00     9400.00
01960            -240.00     9200.00
01961            -240.00     9000.00
01962            -220.00     8800.00
01963            -220.00     8600.00
01964            -220.00     8400.00
01965            -220.00     8200.00
01966            -180.00     7800.00
01967            -180.00     7800.00
01968            -160.00     7400.00
01969            -160.00     7200.00
01970            -160.00     7000.00
01971            -160.00     6800.00
01972            -160.00     6600.00
01973            -160.00     6400.00
01974            -160.00     6000.00
01975            -140.00     5800.00
01976            -140.00     5600.00
01977            -140.00     5200.00
01978            -140.00     5200.00
01979            -140.00     4800.00
01980            -140.00     4600.00
01981            -100.00     4400.00
01982            -100.00     4200.00
01983            -100.00     3800.00
01984            -100.00     3400.00
01985            -100.00     3400.00
01986            -100.00     3000.00
01987            -100.00     3000.00
01988            -100.00     2600.00
01989            -100.00     2200.00
01990             -80.00     2000.00
01991            -100.00     1800.00
01992             -80.00     1400.00
01993            -100.00     1200.00
01994             -80.00     1000.00
01995             -80.00      800.00
01996             -80.00      400.00
01997             -60.00      200.00
01998             -60.00     -200.00
01999             -20.00     -200.00
02000              80.00     -600.00
02001             140.00    -1000.00
02002             100.00    -1000.00
02003              60.00    -1400.00
02004              40.00    -1600.00
02005              20.00    -1800.00
02006             120.00    -2000.00
02007             580.00    -2200.00
02008            1120.00    -2800.00
02009             480.00    -3200.00
02010            -660.00    -3400.00
02011           -1020.00    -3600.00
02012            -740.00    -3600.00
02013            -740.00    -3800.00
02014            -300.00    -4200.00
02015             480.00    -5000.00
02016             180.00    -4400.00
02017             320.00    -4800.00
02018              60.00    -5400.00
02019             -20.00    -5000.00
02020             300.00    -5800.00
02021              60.00    -5800.00
02022             120.00    -6200.00
02023              80.00    -6400.00
02024             -60.00    -6600.00
02025            -140.00    -7200.00
02026              20.00    -6800.00
02027             120.00    -7400.00
02028            -100.00    -7600.00
02029              80.00    -7800.00
02030             140.00    -8200.00
02031              40.00    -8000.00
02032              20.00    -8800.00
02033             120.00    -8400.00
02034             140.00    -9000.00
02035               0.00    -9000.00
02036              40.00    -9200.00
02037             100.00    -9600.00
02038              60.00    -9600.00
02039              60.00   -10000.00
02040             160.00   -10000.00
02041             100.00   -10400.00
02042              80.00   -10600.00
02043             160.00   -10800.00
02044             160.00   -10800.00
02045             140.00   -11000.00
02046             160.00   -11200.00
02047             180.00   -11400.00
02048             140.00   -11400.00
02049             160.00   -11600.00
02050             220.00   -11800.00
02051             220.00   -12000.00
02052             180.00   -12200.00
02053             220.00   -12200.00
02054             240.00   -12400.00
02055             220.00   -12600.00
02056             260.00   -12600.00
02057             300.00   -12600.00
02058             300.00   -12800.00
02059             300.00   -13000.00
02060             320.00   -13000.00
02061             360.00   -13200.00
02062             340.00   -13400.00
02063             400.00   -13400.00
02064             420.00   -13400.00
02065             420.00   -13600.00
02066             440.00   -13400.00
02067             480.00   -13600.00
02068             500.00   -13800.00
02069             560.00   -13800.00
02070             620.00   -14000.00
02071             640.00   -14000.00
02072             640.00   -14000.00
02073             700.00   -14000.00
02074             740.00   -14000.00
02075             800.00   -14200.00
02076             840.00   -14200.00
02077             940.00   -14200.00
02078             960.00   -14200.00
02079            1020.00   -14200.00
02080            1120.00   -14200.00
02081            1200.00   -14200.00
02082            1280.00   -14200.00
02083            1420.00   -14200.00
02084            1520.00   -14200.00
02085            1600.00   -14200.00
02086            1700.00   -14200.00
02087            1820.00   -14000.00
02088            1920.00   -14000.00
02089            2020.00   -14200.00
02090            2100.00   -14000.00
02091            2140.00   -14000.00
02092            2180.00   -14000.00
02093            2220.00   -13800.00
02094            2220.00   -13600.00
02095            2180.00   -13600.00
02096            2140.00   -13600.00
02097            2100.00   -13600.00
02098            1980.00   -13600.00
02099            1860.00   -13400.00
02100            1760.00   -13400.00
02101            1640.00   -13200.00
02102            1500.00   -13200.00
02103            1380.00   -13000.00
02104            1280.00   -13000.00
02105            1140.00   -12800.00
02106            1040.00   -12600.00
02107             940.00   -12600.00
02108             880.00   -12600.00
02109             800.00   -12200.00
02110             740.00   -12200.00
02111             660.00   -12000.00
02112             620.00   -11800.00
02113             560.00   -11800.00
02114             480.00   -11600.00
02115             480.00   -11400.00
02116             460.00   -11400.00
02117             420.00   -11200.00
02118             380.00   -11000.00
02119             320.00   -10800.00
02120             320.00   -10600.00
02121             300.00   -10400.00
02122             300.00   -10200.00
02123             260.00   -10000.00
02124             260.00    -9800.00
02125             240.00    -9600.00
02126             220.00    -9400.00
02127             220.00    -9200.00
02128             220.00    -9200.00
02129             220.00    -9000.00
02130             220.00    -8600.00
02131             200.00    -8600.00
02132             180.00    -8200.00
02133             160.00    -8000.00
02134             160.00    -7800.00
02135             160.00    -7600.00
02136             160.00    -7200.00
02137             140.00    -7200.00
02138             140.00    -6800.00
02139             120.00    -6600.00
02140             100.00    -6200.00
02141             140.00    -6200.00
02142             140.00    -6000.00
02143             120.00    -5600.00
02144             140.00    -5400.00
02145             100.00    -5200.00
02146             100.00    -5000.00
02147              80.00    -4800.00
02148             100.00    -4400.00
02149             100.00    -4200.00
02150             100.00    -3800.00
02151              80.00    -3600.00
02152              80.00    -3200.00
02153              80.00    -3000.00
02154              80.00    -2800.00
02155              80.00    -2600.00
02156              80.00    -2400.00
02157              80.00    -2000.00
02158              80.00    -1800.00
02159              80.00    -1600.00
02160              60.00    -1400.00
02161              80.00     -800.00
02162              80.00     -800.00
02163              80.00     -400.00
02164              60.00     -200.00
02165              60.00      200.00
02166              80.00      200.00
02167             160.00      600.00
02168             240.00      800.00
02169             240.00     1000.00
02170             180.00     1200.00
02171             140.00     1600.00
02172             160.00     1800.00
02173             300.00     2000.00
02174            1020.00     2600.00
02175            1360.00     2800.00
02176             220.00     3000.00
02177           -1040.00     3000.00
02178           -1140.00     3200.00
02179            -940.00     3800.00
02180            -480.00     4000.00
02181             720.00     4000.00
02182             380.00     4200.00
02183             320.00     5000.00
02184              60.00     4600.00
02185            -200.00     5400.00
02186             320.00     5800.00
02187             -80.00     5200.00
02188             160.00     6200.00
02189             220.00     6000.00
02190            -100.00     6600.00
02191            -160.00     6600.00
02192            -100.00     6600.00
02193             180.00     7400.00
02194            -100.00     6800.00
02195              60.00     7800.00
02196              20.00     7600.00
02197             -20.00     7800.00
02198             -40.00     8200.00
02199             -20.00     8400.00
02200              20.00     9000.00
02201            -120.00     8600.00
02202             -20.00     9200.00
02203            -100.00     9400.00
02204             -60.00     9400.00
02205            -160.00     9800.00
02206             -20.00     9800.00
02207             -20.00    10200.00
02208            -120.00    10200.00
02209            -100.00    10600.00
02210            -140.00    10600.00
02211            -120.00    10800.00
02212            -160.00    10800.00
02213            -100.00    11400.00
02214            -220.00    11400.00
02215            -180.00    11600.00
02216            -180.00    11600.00
02217            -140.00    11800.00
02218            -180.00    12000.00
02219            -220.00    12200.00
02220            -240.00    12200.00
02221            -260.00    12400.00
02222            -240.00    12400.00
02223            -240.00    12800.00
02224            -260.00    12800.00
02225            -320.00    12800.00
02226            -320.00    13000.00
02227            -320.00    13200.00
02228            -340.00    13200.00
02229            -340.00    13400.00
02230            -380.00    13400.00
02231            -420.00    13600.00
02232            -460.00    13400.00
02233            -460.00    13800.00
02234            -500.00    13800.00
02235            -500.00    13800.00
02236            -540.00    13800.00
02237            -560.00    13800.00
02238            -640.00    14000.00
02239            -680.00    14000.00
02240            -720.00    14000.00
02241            -740.00    14200.00
02242            -800.00    14200.00
02243            -860.00    14200.00
02244            -900.00    14200.00
02245            -980.00    14200.00
02246           -1040.00    14200.00
02247           -1100.00    14400.00
02248           -1240.00    14200.00
02249           -1300.00    14200.00
02250           -1360.00    14200.00
02251           -1460.00    14200.00
02252           -1620.00    14200.00
02253           -1740.00    14000.00
02254           -1820.00    14000.00
02255           -1920.00    14200.00
02256           -1980.00    14000.00
02257           -2060.00    14200.00
02258           -2180.00    14000.00
02259           -2220.00    14000.00
02260           -2240.00    13800.00
02261           -2220.00    13800.00
02262           -2220.00    13800.00
02263           -2160.00    13800.00
02264           -2080.00    13800.00
02265           -2020.00    13400.00
02266           -1920.00    13600.00
02267           -1780.00    13400.00
02268           -1660.00    13200.00
02269           -1540.00    13000.00
02270           -1420.00    13000.00
02271           -1300.00    13000.00
02272           -1200.00    12800.00
02273           -1100.00    12600.00
02274            -980.00    12600.00
02275            -880.00    12400.00
02276            -840.00    12400.00
02277            -780.00    12200.00
02278            -700.00    12200.00
02279            -640.00    11800.00
02280            -560.00    11800.00
02281            -540.00    11600.00
02282            -500.00    11400.00
02283            -460.00    11400.00
02284            -420.00    11000.00
02285            -400.00    11000.00
02286            -380.00    10800.00
02287            -380.00    10600.00
02288            -340.00    10400.00
02289            -320.00    10200.00
02290            -260.00    10000.00
02291            -260.00     9800.00
02292            -260.00     9800.00
02293            -260.00     9400.00
02294            -240.00     9400.00
02295            -240.00     9200.00
02296            -220.00     8600.00
02297            -200.00     8600.00
02298            -200.00     8400.00
02299            -220.00     8200.00
02300            -180.00     8000.00
02301            -160.00     7800.00
02302            -180.00     7600.00
02303            -180.00     7400.00
02304            -160.00     7000.00
02305            -160.00     6800.00
02306            -160.00     6600.00
02307            -140.00     6400.00
02308            -140.00     6000.00
02309            -140.00     5800.00
02310            -140.00     5800.00
02311            -140.00     5400.00
02312            -140.00     5200.00
02313            -140.00     5000.00
02314            -140.00     4600.00
02315            -100.00     4400.00
02316            -100.00     4200.00
02317            -100.00     4000.00
02318            -100.00     3600.00
02319            -100.00     3400.00
02320            -100.00     3200.00
02321            -100.00     2800.00
02322            -100.00     2800.00
02323            -100.00     2200.00
02324            -100.00     2000.00
02325             -80.00     1800.00
02326             -80.00     1600.00
02327             -80.00     1200.00
02328             -80.00     1000.00
02329            -100.00      800.00
02330             -80.00      600.00
02331             -80.00      200.00
02332             -80.00     -200.00
02333             -60.00     -400.00
02334               0.00     -600.00
02335             140.00     -600.00
02336             140.00    -1000.00
02337              80.00    -1200.00
02338              20.00    -1400.00
02339               0.00    -1600.00
02340              60.00    -2000.00
02341             340.00    -2200.00
02342            1040.00    -2800.00
02343             860.00    -3200.00
02344            -280.00    -3200.00
02345           -1020.00    -3400.00
02346            -860.00    -3600.00
02347            -720.00    -3600.00
02348            -580.00    -4000.00
02349             320.00    -4400.00
02350             300.00    -4600.00
02351             240.00    -4400.00
02352             220.00    -5400.00
02353            -120.00    -5400.00
02354             260.00    -5400.00
02355             140.00    -6000.00
02356              40.00    -6000.00
02357             140.00    -6600.00
02358             -20.00    -6200.00
02359            -100.00    -7000.00
02360             -80.00    -6800.00
02361             160.00    -7000.00
02362             -20.00    -7600.00
02363               0.00    -7600.00
02364             160.00    -8000.00
02365              60.00    -8000.00
02366              20.00    -8600.00
02367              60.00    -8600.00
02368             160.00    -8600.00
02369              40.00    -9200.00
02370              20.00    -9200.00
02371              80.00    -9600.00
02372              80.00    -9600.00
02373              60.00   -10000.00
02374             140.00   -10000.00
02375             140.00   -10000.00
02376              80.00   -10400.00
02377             140.00   -10600.00
02378             180.00   -10600.00
02379             140.00   -11000.00
02380             120.00   -11200.00
02381             160.00   -11400.00
02382             140.00   -11600.00
02383             140.00   -11600.00
02384             200.00   -11800.00
02385             220.00   -11800.00
02386             180.00   -12200.00
02387             200.00   -12200.00
02388             240.00   -12200.00
02389             220.00   -12400.00
02390             240.00   -12600.00
02391             300.00   -12600.00
02392             300.00   -12800.00
02393             280.00   -12800.00
02394             320.00   -13000.00
02395             340.00   -13200.00
02396             340.00   -13200.00
02397             380.00   -13400.00
02398             400.00   -13400.00
02399             420.00   -13400.00
02400             400.00   -13600.00
02401             480.00   -13600.00
02402             500.00   -13800.00
02403             540.00   -13800.00
02404             580.00   -14000.00
02405             640.00   -14000.00
02406             640.00   -14000.00
02407             700.00   -14000.00
02408             740.00   -14200.00
02409             780.00   -14200.00
02410             820.00   -14200.00
02411             900.00   -14200.00
02412             960.00   -14400.00
02413            1020.00   -14200.00
02414            1100.00   -14200.00
02415            1180.00   -14200.00
02416            1260.00   -14400.00
02417            1380.00   -14400.00
02418            1500.00   -14200.00
02419            1580.00   -14200.00
02420            1680.00   -14200.00
02421            1780.00   -14000.00
02422            1900.00   -14000.00
02423            1980.00   -14200.00
02424            2080.00   -14000.00
02425            2140.00   -14000.00
02426            2180.00   -14000.00
02427            2220.00   -13600.00
02428            2220.00   -13800.00
02429            2220.00   -13800.00
02430            2180.00   -13600.00
02431            2120.00   -13600.00
02432            2040.00   -13400.00
02433            1920.00   -13400.00
02434            1780.00   -13400.00
02435            1680.00   -13400.00
02436            1580.00   -13200.00
02437            1440.00   -13000.00
02438            1340.00   -13000.00
02439            1200.00   -12800.00
02440            1100.00   -12600.00
02441             980.00   -12600.00
02442             900.00   -12400.00
02443             820.00   -12400.00
02444             740.00   -12200.00
02445             700.00   -12200.00
02446             620.00   -11800.00
02447             560.00   -11800.00
02448             540.00   -11600.00
02449             500.00   -11400.00
02450             460.00   -11200.00
02451             420.00   -11200.00
02452             400.00   -11000.00
02453             340.00   -10800.00
02454             320.00   -10600.00
02455             320.00   -10200.00
02456             300.00   -10400.00
02457             300.00   -10000.00
02458             260.00    -9800.00
02459             240.00    -9800.00
02460             220.00    -9600.00
02461             220.00    -9200.00
02462             220.00    -9200.00
02463             200.00    -9000.00
02464             180.00    -8600.00
02465             200.00    -8600.00
02466             160.00    -8200.00
02467             160.00    -8200.00
02468             160.00    -7800.00
02469             160.00    -7400.00
02470             160.00    -7400.00
02471             160.00    -7200.00
02472             140.00    -7000.00
02473             120.00    -6800.00
02474             140.00    -6400.00
02475             140.00    -6200.00
02476             140.00    -6000.00
02477             140.00    -5800.00
02478             140.00    -5400.00
02479             120.00    -5200.00
02480              80.00    -5000.00
02481             100.00    -4800.00
02482             100.00    -4600.00
02483             100.00    -4200.00
02484             100.00    -3800.00
02485             100.00    -3800.00
02486             100.00    -3400.00
02487              80.00    -3400.00
02488              80.00    -3000.00
02489              80.00    -2600.00
02490             100.00    -2600.00
02491              80.00    -2200.00
02492              80.00    -2000.00
02493              60.00    -1600.00
02494              60.00    -1400.00
02495              60.00    -1000.00
02496              80.00     -800.00
02497              60.00     -600.00
02498              80.00     -200.00
02499              60.00        0.00
02500              80.00      200.00
02501             100.00      400.00
02502             220.00      600.00
02503             240.00     1000.00
02504             220.00     1200.00
02505             160.00     1400.00
02506             140.00     1800.00
02507             220.00     2000.00
02508             700.00     2400.00
02509            1420.00     2800.00
02510             740.00     3000.00
02511            -660.00     3000.00
02512           -1220.00     3000.00
02513            -980.00     3600.00
02514            -800.00     4000.00
02515             380.00     4000.00
02516             620.00     4200.00
02517             260.00     4600.00
02518             260.00     4600.00
02519            -260.00     4800.00
02520             220.00     6000.00
02521             100.00     5200.00
02522             -20.00     5800.00
02523             320.00     6000.00
02524             -60.00     6200.00
02525            -100.00     6800.00
02526            -220.00     6200.00
02527             140.00     7200.00
02528             -20.00     7200.00
02529             -60.00     7200.00
02530              80.00     7800.00
02531             -40.00     7800.00
02532             -20.00     8200.00
02533             -80.00     8200.00
02534              60.00     9000.00
02535            -100.00     8600.00
02536             -60.00     8800.00
02537             -80.00     9400.00
02538            -100.00     9400.00
02539            -120.00     9800.00
02540             -80.00     9600.00
02541              20.00    10200.00
02542            -100.00    10200.00
02543             -80.00    10400.00
02544            -140.00    10600.00
02545            -120.00    10800.00
02546            -160.00    10800.00
02547            -100.00    11200.00
02548            -160.00    11200.00
02549            -220.00    11400.00
02550            -160.00    11600.00
02551            -160.00    11800.00
02552            -160.00    12000.00
02553            -200.00    12000.00
02554            -220.00    12400.00
02555            -260.00    12200.00
02556            -260.00    12600.00
02557            -220.00    12600.00
02558            -240.00    13000.00
02559            -300.00    13000.00
02560            -320.00    13000.00
02561            -320.00    13200.00
02562            -320.00    13200.00
02563            -320.00    13200.00
02564            -320.00    13600.00
02565            -400.00    13600.00
02566            -460.00    13600.00
02567            -460.00    13600.00
02568            -480.00    13800.00
02569            -500.00    13800.00
02570            -500.00    13800.00
02571            -540.00    14000.00
02572            -620.00    14000.00
02573            -660.00    14000.00
02574            -680.00    14200.00
02575            -740.00    14200.00
02576            -800.00    14200.00
02577            -800.00    14200.00
02578            -880.00    14200.00
02579            -960.00    14200.00
02580           -1020.00    14200.00
02581           -1060.00    14200.00
02582           -1180.00    14200.00
02583           -1260.00    14200.00
02584           -1340.00    14200.00
02585           -1440.00    14200.00
02586           -1580.00    14200.00
02587           -1660.00    14200.00
02588           -1780.00    14200.00
02589           -1900.00    14200.00
02590           -1980.00    14000.00
02591           -2060.00    14200.00
02592           -2140.00    14000.00
02593           -2180.00    13800.00
02594           -2240.00    13800.00
02595           -2240.00    13800.00
02596           -2240.00    13600.00
02597           -2180.00    13800.00
02598           -2100.00    13600.00
02599           -2060.00    13400.00
02600           -1960.00    13400.00
02601           -1860.00    13400.00
02602           -1720.00    13200.00
02603           -1580.00    13200.00
02604           -1440.00    13200.00
02605           -1340.00    13000.00
02606           -1260.00    13000.00
02607           -1140.00    12600.00
02608           -1020.00    12600.00
02609            -900.00    12600.00
02610            -820.00    12400.00
02611            -780.00    12200.00
02612            -740.00    12200.00
02613            -660.00    12000.00
02614            -620.00    11800.00
02615            -540.00    11600.00
02616            -500.00    11400.00
02617            -460.00    11400.00
02618            -420.00    11200.00
02619            -420.00    11000.00
02620            -380.00    10800.00
02621            -340.00    10600.00
02622            -320.00    10600.00
02623            -320.00    10400.00
02624            -300.00    10000.00
02625            -260.00    10000.00
02626            -260.00     9800.00
02627            -240.00     9600.00
02628            -260.00     9400.00
02629            -240.00     9200.00
02630            -240.00     9000.00
02631            -180.00     8600.00
02632            -180.00     8400.00
02633            -180.00     8400.00
02634            -180.00     8000.00
02635            -160.00     7800.00
02636            -160.00     7600.00
02637            -180.00     7400.00
02638            -160.00     7200.00
02639            -160.00     6800.00
02640            -160.00     6800.00
02641            -140.00     6600.00
02642            -120.00     6200.00
02643            -160.00     6000.00
02644            -140.00     5800.00
02645            -140.00     5600.00
02646            -140.00     5200.00
02647            -140.00     5000.00
02648            -100.00     5000.00
02649            -100.00     4600.00
02650            -120.00     4200.00
02651            -100.00     3800.00
02652            -100.00     3800.00
02653            -100.00     3400.00
02654            -100.00     3400.00
02655            -100.00     3000.00
02656            -100.00     2800.00
02657            -100.00     2400.00
02658             -80.00     2200.00
02659            -100.00     1800.00
02660            -100.00     1600.00
02661             -80.00     1400.00
02662            -100.00     1000.00
02663             -80.00     1000.00
02664             -80.00      600.00
02665            -100.00      200.00
02666            -100.00      200.00
02667             -60.00     -200.00
02668               0.00     -400.00
02669             100.00     -600.00
02670             160.00    -1000.00
02671             100.00    -1200.00
02672              20.00    -1400.00
02673              20.00    -1800.00
02674              40.00    -1800.00
02675             220.00    -2000.00
02676             800.00    -2400.00
02677            1100.00    -3000.00
02678             160.00    -3000.00
02679            -860.00    -3400.00
02680            -960.00    -3600.00
02681            -720.00    -3600.00
02682            -720.00    -3800.00
02683             -20.00    -4200.00
02684             460.00    -4800.00
02685             160.00    -4400.00
02686             320.00    -5200.00
02687             -60.00    -5400.00
02688              80.00    -5400.00
02689             260.00    -6000.00
02690               0.00    -5800.00
02691             160.00    -6600.00
02692              60.00    -6200.00
02693             -60.00    -6600.00
02694            -160.00    -7200.00
02695              80.00    -7000.00
02696              60.00    -7600.00
02697             -80.00    -7600.00
02698             160.00    -8000.00
02699             100.00    -8000.00
02700              20.00    -8200.00
02701              20.00    -8800.00
02702             160.00    -8600.00
02703              80.00    -9200.00
02704               0.00    -9200.00
02705              60.00    -9400.00
02706             100.00    -9400.00
02707              60.00    -9800.00
02708              80.00   -10000.00
02709             160.00   -10000.00
02710              80.00   -10600.00
02711             100.00   -10600.00
02712             180.00   -10800.00
02713             160.00   -10800.00
02714             100.00   -11000.00
02715             160.00   -11200.00
02716             160.00   -11400.00
02717             140.00   -11600.00
02718             160.00   -11600.00
02719             240.00   -11800.00
02720             220.00   -12200.00
02721             180.00   -12200.00
02722             240.00   -12400.00
02723             220.00   -12400.00
02724             220.00   -12600.00
02725             260.00   -12600.00
02726             300.00   -13000.00
02727             260.00   -13000.00
02728             300.00   -13000.00
02729             340.00   -13200.00
02730             340.00   -13200.00
02731             380.00   -13400.00
02732             420.00   -13400.00
02733             420.00   -13400.00
02734             400.00   -13600.00
02735             460.00   -13600.00
02736             500.00   -13800.00
02737             520.00   -14000.00
02738             560.00   -13800.00
02739             620.00   -13800.00
02740             640.00   -14000.00
02741             640.00   -14000.00
02742             720.00   -14200.00
02743             760.00   -14000.00
02744             800.00   -14200.00
02745             860.00   -14200.00
02746             940.00   -14200.00
02747             980.00   -14200.00
02748            1060.00   -14200.00
02749            1160.00   -14400.00
02750            1260.00   -14200.00
02751            1340.00   -14200.00
02752            1460.00   -14200.00
02753            1540.00   -14200.00
02754            1640.00   -14200.00
02755            1740.00   -14000.00
02756            1840.00   -14200.00
02757            1940.00   -14000.00
02758            2040.00   -14200.00
02759            2140.00   -14000.00
02760            2180.00   -14000.00
02761            2200.00   -13800.00
02762            2220.00   -13600.00
02763            2220.00   -13600.00
02764            2180.00   -13600.00
02765            2140.00   -13600.00
02766            2080.00   -13600.00
02767            1960.00   -13400.00
02768            1840.00   -13400.00
02769            1720.00   -13400.00
02770            1600.00   -13200.00
02771            1500.00   -13200.00
02772            1380.00   -13000.00
02773            1260.00   -12800.00
02774            1120.00   -12800.00
02775            1020.00   -12600.00
02776             940.00   -12600.00
02777             860.00   -12400.00
02778             800.00   -12400.00
02779             720.00   -12200.00
02780             660.00   -11800.00
02781             580.00   -12000.00
02782             540.00   -11800.00
02783             500.00   -11600.00
02784             460.00   -11400.00
02785             420.00   -11000.00
02786             400.00   -11000.00
02787             380.00   -10800.00
02788             320.00   -10600.00
02789             320.00   -10600.00
02790             300.00   -10400.00
02791             300.00   -10200.00
02792             280.00   -10000.00
02793             240.00    -9800.00
02794             240.00    -9400.00
02795             220.00    -9200.00
02796             200.00    -9200.00
02797             220.00    -9000.00
02798             200.00    -8800.00
02799             200.00    -8600.00
02800             180.00    -8400.00
02801             160.00    -8200.00
02802             160.00    -8200.00
02803             160.00    -7800.00
02804             160.00    -7400.00
02805             140.00    -7200.00
02806             140.00    -7000.00
02807             140.00    -6800.00
02808             140.00    -6600.00
02809             120.00    -6200.00
02810             120.00    -6000.00
02811             140.00    -5800.00
02812             120.00    -5600.00
02813             100.00    -5400.00
02814             100.00    -5000.00
02815              80.00    -4800.00
02816             100.00    -4600.00
02817              80.00    -4400.00
02818             100.00    -4200.00
02819             100.00    -3800.00
02820             100.00    -3600.00
02821              80.00    -3000.00
02822              80.00    -3000.00
02823              80.00    -2800.00
02824              80.00    -2600.00
02825              80.00    -2200.00
02826              80.00    -2000.00
02827              60.00    -1800.00
02828              80.00    -1400.00
02829              60.00    -1200.00
02830              80.00     -800.00
02831              80.00     -600.00
02832              80.00     -400.00
02833              80.00     -200.00
02834              80.00      200.00
02835             100.00      400.00
02836             160.00      600.00
02837             240.00     1000.00
02838             240.00     1000.00
02839             160.00     1400.00
02840             160.00     1600.00
02841             160.00     1800.00
02842             420.00     2200.00
02843            1260.00     2600.00
02844            1180.00     2800.00
02845            -160.00     3000.00
02846           -1180.00     3200.00
02847           -1060.00     3400.00
02848            -920.00     4000.00
02849            -140.00     4200.00
02850             780.00     3800.00
02851             260.00     4400.00
02852             340.00     5000.00
02853            -100.00     4600.00
02854             -60.00     5800.00
02855             300.00     5600.00
02856            -140.00     5400.00
02857             260.00     6200.00
02858              80.00     5800.00
02859            -100.00     6800.00
02860            -180.00     6600.00
02861             -20.00     7000.00
02862             140.00     7400.00
02863            -120.00     7000.00
02864             100.00     7800.00
02865             -20.00     7600.00
02866             -20.00     8200.00
02867             -80.00     8200.00
02868              20.00     8600.00
02869               0.00     8600.00
02870            -100.00     8600.00
02871             -40.00     9200.00
02872            -100.00     9400.00
02873             -60.00     9600.00
02874            -120.00     9800.00
02875               0.00    10200.00
02876            -100.00    10200.00
02877            -100.00    10200.00
02878            -100.00    10600.00
02879            -100.00    10800.00
02880            -140.00    11000.00
02881            -140.00    11000.00
02882            -140.00    11400.00
02883            -220.00    11400.00
02884            -180.00    11400.00
02885            -140.00    12000.00
02886            -160.00    11800.00
02887            -180.00    12000.00
02888            -220.00    12200.00
02889            -240.00    12400.00
02890            -260.00    12400.00
02891            -240.00    12600.00
02892            -220.00    12800.00
02893            -300.00    13000.00
02894            -320.00    13000.00
02895            -320.00    13000.00
02896            -320.00    13200.00
02897            -320.00    13400.00
02898            -320.00    13200.00
02899            -380.00    13400.00
02900            -420.00    13400.00
02901            -440.00    13800.00
02902            -460.00    13800.00
02903            -500.00    13800.00
02904            -520.00    13800.00
02905            -540.00    14000.00
02906            -580.00    14000.00
02907            -640.00    13800.00
02908            -660.00    14200.00
02909            -720.00    14200.00
02910            -780.00    14200.00
02911            -800.00    14200.00
02912            -860.00    14200.00
02913            -940.00    14200.00
02914            -980.00    14200.00
02915           -1060.00    14200.00
02916           -1140.00    14200.00
02917           -1220.00    14400.00
02918           -1300.00    14200.00
02919           -1380.00    14200.00
02920           -1540.00    14200.00
02921           -1660.00    14200.00
02922           -1760.00    14200.00
02923           -1860.00    14000.00
02924           -1940.00    14200.00
02925           -2020.00    14200.00
02926           -2100.00    14000.00
02927           -2180.00    13800.00
02928           -2220.00    14000.00
02929           -2240.00    13800.00
02930           -2240.00    14000.00
02931           -2200.00    13800.00
02932           -2160.00    13600.00
02933           -2080.00    13800.00
02934           -2000.00    13400.00
02935           -1900.00    13400.00
02936           -1760.00    13200.00
02937           -1660.00    13200.00
02938           -1520.00    13200.00
02939           -1380.00    13000.00
02940           -1280.00    13000.00
02941           -1180.00    13000.00
02942           -1060.00    12800.00
02943            -980.00    12600.00
02944            -880.00    12400.00
02945            -800.00    12400.00
02946            -740.00    12200.00
02947            -680.00    12000.00
02948            -620.00    11800.00
02949            -560.00    11800.00
02950            -540.00    11600.00
02951            -480.00    11400.00
02952            -420.00    11200.00
02953            -420.00    11000.00
02954            -400.00    10800.00
02955            -380.00    11000.00
02956            -340.00    10600.00
02957            -320.00    10400.00
02958            -300.00    10200.00
02959            -260.00     9800.00
02960            -260.00     9800.00
02961            -260.00     9400.00
02962            -260.00     9400.00
02963            -260.00     9200.00
02964            -220.00     9200.00
02965            -220.00     9000.00
02966            -220.00     8600.00
02967            -200.00     8400.00
02968            -220.00     8200.00
02969            -220.00     7800.00
02970            -180.00     7800.00
02971            -160.00     7400.00
02972            -160.00     7200.00
02973            -160.00     7000.00
02974            -160.00     6800.00
02975            -160.00     6600.00
02976            -160.00     6200.00
02977            -140.00     6200.00
02978            -140.00     5800.00
02979            -140.00     5600.00
02980            -140.00     5200.00
02981            -140.00     5200.00
02982            -140.00     5000.00
02983            -140.00     4600.00
02984            -100.00     4400.00
02985            -100.00     4200.00
02986            -100.00     3800.00
02987            -100.00     3600.00
02988            -100.00     3400.00
02989            -100.00     3000.00
02990            -120.00     2800.00
02991            -100.00     2600.00
02992            -100.00     2400.00
02993            -100.00     2000.00
02994            -100.00     1800.00
02995             -80.00     1400.00
02996             -80.00     1200.00
02997             -80.00     1000.00
02998             -80.00      600.00
02999             -80.00      400.00
03000             -80.00      200.00
03001             -80.00     -200.00
03002             -20.00     -400.00
03003              60.00     -600.00
03004             140.00     -800.00
03005             100.00    -1000.00
03006              60.00    -1200.00
03007              20.00    -1600.00
03008              20.00    -1800.00
03009             100.00    -2000.00
03010             500.00    -2200.00
03011            1140.00    -2800.00
03012             600.00    -3200.00
03013            -540.00    -3400.00
03014           -1020.00    -3600.00
03015            -740.00    -3600.00
03016            -740.00    -3600.00
03017            -380.00    -4000.00
03018             480.00    -4600.00
03019             220.00    -4600.00
03020             300.00    -4600.00
03021             140.00    -5400.00
03022             -80.00    -5000.00
03023             320.00    -5800.00
03024              60.00    -5800.00
03025             100.00    -6200.00
03026             100.00    -6600.00
03027             -20.00    -6200.00
03028            -140.00    -7200.00
03029               0.00    -6800.00
03030             140.00    -7400.00
03031             -80.00    -7600.00
03032              60.00    -7800.00
03033             160.00    -8200.00
03034              40.00    -8200.00
03035              20.00    -8600.00
03036             140.00    -8400.00
03037             140.00    -9000.00
03038              20.00    -9200.00
03039              40.00    -9200.00
03040              80.00    -9400.00
03041              80.00    -9800.00
03042              80.00   -10000.00
03043             160.00   -10000.00
03044             100.00   -10200.00
03045              80.00   -10400.00
03046             160.00   -10600.00
03047             180.00   -10800.00
03048             140.00   -11000.00
03049             140.00   -11200.00
03050             160.00   -11400.00
03051             140.00   -11600.00
03052             140.00   -11800.00
03053             220.00   -11800.00
03054             220.00   -12000.00
03055             180.00   -12000.00
03056             220.00   -12200.00
03057             240.00   -12400.00
03058             220.00   -12600.00
03059             240.00   -12600.00
03060             260.00   -12600.00
03061             280.00   -13000.00
03062             280.00   -13000.00
03063             320.00   -13200.00
03064             340.00   -13200.00
03065             340.00   -13400.00
03066             400.00   -13400.00
03067             400.00   -13400.00
03068             400.00   -13400.00
03069             420.00   -13600.00
03070             480.00   -13800.00
03071             500.00   -13800.00
03072             540.00   -13800.00
03073             580.00   -14000.00
03074             620.00   -14000.00
03075             640.00   -14000.00
03076             700.00   -14200.00
03077             760.00   -14000.00
03078             800.00   -14200.00
03079             860.00   -14200.00
03080             940.00   -14200.00
03081             960.00   -14200.00
03082            1020.00   -14000.00
03083            1120.00   -14200.00
03084            1220.00   -14200.00
03085            1300.00   -14200.00
03086            1420.00   -14200.00
03087            1520.00   -14200.00
03088            1600.00   -14200.00
03089            1700.00   -14200.00
03090            1820.00   -14200.00
03091            1920.00   -14000.00
03092            2020.00   -14000.00
03093            2080.00   -14200.00
03094            2160.00   -14000.00
03095            2200.00   -13800.00
03096            2220.00   -13600.00
03097            2240.00   -13800.00
03098            2180.00   -13600.00
03099            2160.00   -13600.00
03100            2100.00   -13600.00
03101            2000.00   -13400.00
03102            1880.00   -13400.00
03103            1780.00   -13200.00
03104            1660.00   -13200.00
03105            1540.00   -13000.00
03106            1420.00   -13200.00
03107            1280.00   -13000.00
03108            1180.00   -12800.00
03109            1060.00   -12600.00
03110             960.00   -12600.00
03111             880.00   -12400.00
03112             800.00   -12200.00
03113             720.00   -12200.00
03114             680.00   -12200.00
03115             620.00   -11800.00
03116             540.00   -11800.00
03117             500.00   -11600.00
03118             480.00   -11600.00
03119             420.00   -11400.00
03120             400.00   -11200.00
03121             380.00   -11000.00
03122             340.00   -10800.00
03123             320.00   -10600.00
03124             320.00   -10600.00
03125             300.00   -10200.00
03126             260.00   -10000.00
03127             240.00    -9800.00
03128             240.00    -9800.00
03129             220.00    -9400.00
03130             220.00    -9400.00
03131             220.00    -9200.00
03132             180.00    -9000.00
03133             180.00    -8800.00
03134             180.00    -8400.00
03135             160.00    -8200.00
03136             160.00    -8000.00
03137             160.00    -7800.00
03138             140.00    -7400.00
03139             160.00    -7200.00
03140             140.00    -7000.00
03141             140.00    -6800.00
03142             140.00    -6600.00
03143             140.00    -6400.00
03144             120.00    -6000.00
03145             140.00    -6000.00
03146             140.00    -5800.00
03147             120.00    -5400.00
03148             100.00    -5000.00
03149             100.00    -5000.00
03150             100.00    -4600.00
03151             100.00    -4400.00
03152             100.00    -4200.00
03153             100.00    -4000.00
03154             100.00    -3600.00
03155              80.00    -3400.00
03156              80.00    -3200.00
03157              80.00    -2800.00
03158             100.00    -2600.00
03159              80.00    -2400.00
03160              80.00    -2200.00
03161              80.00    -1800.00
03162              80.00    -1400.00
03163              60.00    -1400.00
03164              80.00    -1000.00
03165              80.00     -600.00
03166              80.00     -600.00
03167              80.00     -200.00
03168              60.00        0.00
03169              80.00      200.00
03170             140.00      600.00
03171             220.00     1000.00
03172             240.00     1000.00
03173             180.00     1400.00
03174             160.00     1400.00
03175             140.00     1800.00
03176             260.00     2000.00
03177             940.00     2200.00
03178            1420.00     2800.00
03179             400.00     3000.00
03180            -960.00     3400.00
03181           -1200.00     3400.00
03182            -940.00     3600.00
03183            -580.00     4000.00
03184             640.00     4000.00
03185             440.00     4200.00
03186             300.00     5000.00
03187             140.00     4600.00
03188            -260.00     5200.00
03189             300.00     5800.00
03190             -20.00     5000.00
03191              80.00     6200.00
03192             240.00     6000.00
03193            -100.00     6400.00
03194            -140.00     6600.00
03195            -160.00     6600.00
03196             160.00     7600.00
03197             -80.00     7000.00
03198              20.00     7600.00
03199              20.00     7800.00
03200             -20.00     7800.00
03201             -20.00     8400.00
03202             -20.00     8200.00
03203              60.00     9000.00
03204            -140.00     8600.00
03205             -20.00     9000.00
03206            -100.00     9400.00
03207             -60.00     9600.00
03208            -140.00     9800.00
03209             -20.00    10000.00
03210             -20.00    10200.00
03211            -140.00    10200.00
03212             -80.00    10600.00
03213            -100.00    10800.00
03214            -100.00    11000.00
03215            -160.00    10800.00
03216            -100.00    11400.00
03217            -180.00    11400.00
03218            -180.00    11600.00
03219            -160.00    11600.00
03220            -140.00    11800.00
03221            -160.00    12000.00
03222            -180.00    12200.00
03223            -240.00    12400.00
03224            -260.00    12400.00
03225            -240.00    12600.00
03226            -220.00    12800.00
03227            -260.00    13000.00
03228            -320.00    12800.00
03229            -320.00    13200.00
03230            -320.00    13000.00
03231            -320.00    13200.00
03232            -320.00    13400.00
03233            -340.00    13400.00
03234            -420.00    13600.00
03235            -460.00    13600.00
03236            -460.00    13800.00
03237            -500.00    13800.00
03238            -520.00    13800.00
03239            -520.00    14000.00
03240            -560.00    14000.00
03241            -620.00    14000.00
03242            -660.00    14000.00
03243            -700.00    14000.00
03244            -740.00    14200.00
03245            -800.00    14200.00
03246            -820.00    14200.00
03247            -900.00    14200.00
03248            -980.00    14200.00
03249           -1040.00    14200.00
03250           -1100.00    14200.00
03251           -1200.00    14200.00
03252           -1280.00    14200.00
03253           -1380.00    14200.00
03254           -1460.00    14200.00
03255           -1600.00    14200.00
03256           -1720.00    14200.00
03257           -1820.00    14200.00
03258           -1920.00    14200.00
03259           -2000.00    14000.00
03260           -2080.00    14200.00
03261           -2140.00    14000.00
03262           -2220.00    14000.00
03263           -2240.00    13800.00
03264           -2240.00    13800.00
03265           -2220.00    13800.00
03266           -2180.00    13800.00
03267           -2100.00    13600.00
03268           -2020.00    13400.00
03269           -1920.00    13600.00
03270           -1820.00    13400.00
03271           -1680.00    13400.00
03272           -1540.00    13200.00
03273           -1400.00    13200.00
03274           -1320.00    13000.00
03275           -1220.00    13000.00
03276           -1100.00    12800.00
03277           -1020.00    12600.00
03278            -900.00    12600.00
03279            -820.00    12400.00
03280            -740.00    12200.00
03281            -700.00    12000.00
03282            -640.00    12000.00
03283            -580.00    11800.00
03284            -540.00    11600.00
03285            -480.00    11600.00
03286            -460.00    11400.00
03287            -400.00    11000.00
03288            -400.00    11000.00
03289            -400.00    10800.00
03290            -340.00    10600.00
03291            -320.00    10400.00
03292            -300.00    10200.00
03293            -300.00    10000.00
03294            -280.00    10000.00
03295            -260.00     9800.00
03296            -260.00     9400.00
03297            -240.00     9400.00
03298            -240.00     9200.00
03299            -180.00     8800.00
03300            -200.00     8600.00
03301            -220.00     8400.00
03302            -180.00     8200.00
03303            -220.00     8000.00
03304            -160.00     7800.00
03305            -160.00     7600.00
03306            -160.00     7200.00
03307            -160.00     7000.00
03308            -160.00     6800.00
03309            -160.00     6600.00
03310            -160.00     6400.00
03311            -160.00     6200.00
03312            -160.00     5800.00
03313            -140.00     5800.00
03314            -140.00     5400.00
03315            -140.00     5200.00
03316            -160.00     5000.00
03317            -140.00     4600.00
03318            -140.00     4400.00
03319            -140.00     4200.00
03320            -100.00     3800.00
03321            -140.00     3600.00
03322            -120.00     3400.00
03323            -100.00     3000.00
03324            -100.00     2800.00
03325            -100.00     2600.00
03326            -100.00     2400.00
03327            -100.00     2200.00
03328            -100.00     1800.00
03329            -100.00     1400.00
03330            -100.00     1200.00
03331             -80.00     1000.00
03332             -80.00     1000.00
03333             -80.00      600.00
03334             -80.00      200.00
03335             -80.00        0.00
03336             -60.00     -200.00
03337               0.00     -600.00
03338             120.00     -800.00
03339             140.00    -1000.00
03340              80.00    -1200.00
03341              20.00    -1400.00
03342               0.00    -1800.00
03343              60.00    -1800.00
03344             300.00    -2000.00
03345             960.00    -2600.00
03346             960.00    -3000.00
03347            -140.00    -3000.00
03348            -980.00    -3600.00
03349            -900.00    -3600.00
03350            -700.00    -3800.00
03351            -640.00    -3600.00
03352             240.00    -4400.00
03353             340.00    -4600.00
03354             220.00    -4400.00
03355             260.00    -5400.00
03356            -100.00    -5200.00
03357             200.00    -5400.00
03358             180.00    -5800.00
03359              20.00    -6000.00
03360             160.00    -6600.00
03361               0.00    -6200.00
03362            -100.00    -7000.00
03363             -80.00    -7000.00
03364             140.00    -7000.00
03365               0.00    -7800.00
03366             -60.00    -7600.00
03367             140.00    -8200.00
03368              80.00    -7800.00
03369              20.00    -8400.00
03370              80.00    -8600.00
03371             180.00    -8600.00
03372              60.00    -9200.00
03373              20.00    -9200.00
03374              80.00    -9400.00
03375             100.00    -9600.00
03376              60.00    -9800.00
03377             100.00   -10000.00
03378             140.00   -10200.00
03379              60.00   -10600.00
03380             120.00   -10600.00
03381             160.00   -10800.00
03382             140.00   -11000.00
03383             100.00   -11200.00
03384             160.00   -11400.00
03385             160.00   -11400.00
03386             100.00   -11600.00
03387             180.00   -11600.00
03388             220.00   -11800.00
03389             180.00   -12200.00
03390             180.00   -12400.00
03391             240.00   -12400.00
03392             220.00   -12400.00
03393             240.00   -12600.00
03394             280.00   -12600.00
03395             300.00   -12800.00
03396             240.00   -13200.00
03397             300.00   -13000.00
03398             340.00   -13200.00
03399             340.00   -13200.00
03400             380.00   -13400.00
03401             420.00   -13400.00
03402             400.00   -13400.00
03403             420.00   -13600.00
03404             460.00   -13800.00
03405             500.00   -13600.00
03406             540.00   -13800.00
03407             600.00   -14000.00
03408             640.00   -14000.00
03409             620.00   -14000.00
03410             660.00   -14000.00
03411             720.00   -14200.00
03412             780.00   -14000.00
03413             820.00   -14200.00
03414             940.00   -14200.00
03415             960.00   -14400.00
03416            1020.00   -14200.00
03417            1060.00   -14200.00
03418            1180.00   -14200.00
03419            1260.00   -14200.00
03420            1360.00   -14200.00
03421            1500.00   -14200.00
03422            1580.00   -14200.00
03423            1680.00   -14200.00
03424            1760.00   -14000.00
03425            1900.00   -14000.00
03426            1980.00   -14000.00
03427            2080.00   -14000.00
03428            2140.00   -13800.00
03429            2180.00   -14000.00
03430            2220.00   -13800.00
03431            2240.00   -13600.00
03432            2220.00   -13800.00
03433            2160.00   -13600.00
03434            2120.00   -13800.00
03435            2060.00   -13600.00
03436            1920.00   -13400.00
03437            1820.00   -13200.00
03438            1680.00   -13200.00
03439            1580.00   -13200.00
03440            1460.00   -13200.00
03441            1340.00   -13000.00
03442            1200.00   -13000.00
03443            1100.00   -12800.00
03444             980.00   -12600.00
03445             920.00   -12600.00
03446             820.00   -12400.00
03447             780.00   -12200.00
03448             700.00   -12000.00
03449             640.00   -12000.00
03450             560.00   -11800.00
03451             540.00   -11600.00
03452             480.00   -11600.00
03453             460.00   -11200.00
03454             400.00   -11400.00
03455             380.00   -11000.00
03456             340.00   -11000.00
03457             320.00   -10800.00
03458             300.00   -10600.00
03459             300.00   -10200.00
03460             280.00   -10200.00
03461             260.00   -10000.00
03462             240.00    -9800.00
03463             220.00    -9600.00
03464             220.00    -9400.00
03465             220.00    -9000.00
03466             220.00    -9000.00
03467             220.00    -8600.00
03468             180.00    -8600.00
03469             180.00    -8400.00
03470             160.00    -8200.00
03471             160.00    -7800.00
03472             160.00    -7600.00
03473             160.00    -7400.00
03474             160.00    -7000.00
03475             140.00    -7000.00
03476             140.00    -6800.00
03477             140.00    -6400.00
03478             140.00    -6200.00
03479             140.00    -6200.00
03480             140.00    -5800.00
03481             140.00    -5400.00
03482             100.00    -5200.00
03483             120.00    -5000.00
03484             100.00    -4600.00
03485             100.00    -4600.00
03486             100.00    -4200.00
03487             100.00    -3800.00
03488             100.00    -3800.00
03489              80.00    -3400.00
03490              80.00    -3200.00
03491              80.00    -3000.00
03492              80.00    -2600.00
03493              80.00    -2400.00
03494              80.00    -2200.00
03495             100.00    -2000.00
03496              80.00    -1800.00
03497              80.00    -1400.00
03498              80.00    -1000.00
03499              80.00     -800.00
03500              80.00     -600.00
03501              80.00     -200.00
03502              80.00     -200.00
03503              80.00      200.00
03504             100.00      600.00
03505             220.00      600.00
03506             240.00      800.00
03507             220.00     1200.00
03508             160.00     1400.00
03509             140.00     1400.00
03510             180.00     1800.00
03511             580.00     2200.00
03512            1400.00     2600.00
03513             880.00     2800.00
03514            -540.00     3000.00
03515           -1240.00     3000.00
03516           -1020.00     3400.00
03517            -860.00     3800.00
03518             240.00     4000.00
03519             660.00     4200.00
03520             240.00     4600.00
03521             320.00     4800.00
03522            -260.00     4600.00
03523             140.00     5800.00
03524             180.00     5400.00
03525             -80.00     5600.00
03526             300.00     6000.00
03527               0.00     6000.00
03528            -100.00     7000.00
03529            -180.00     6400.00
03530              80.00     7400.00
03531              20.00     7000.00
03532             -80.00     7200.00
03533             120.00     7800.00
03534             -60.00     7800.00
03535               0.00     8400.00
03536             -80.00     8000.00
03537              60.00     8600.00
03538             -80.00     8600.00
03539             -60.00     9000.00
03540             -60.00     9400.00
03541             -80.00     9400.00
03542             -80.00     9800.00
03543            -100.00     9800.00
03544              20.00    10000.00
03545            -100.00    10000.00
03546             -80.00    10400.00
03547            -120.00    10600.00
03548            -100.00    10800.00
03549            -140.00    11000.00
03550            -100.00    11000.00
03551            -140.00    11400.00
03552            -220.00    11400.00
03553            -180.00    11600.00
03554            -160.00    11800.00
03555            -160.00    12000.00
03556            -180.00    12200.00
03557            -220.00    12200.00
03558            -260.00    12400.00
03559            -260.00    12400.00
03560            -240.00    12600.00
03561            -240.00    12800.00
03562            -300.00    13000.00
03563            -320.00    13000.00
03564            -320.00    13200.00
03565            -320.00    13000.00
03566            -320.00    13400.00
03567            -340.00    13400.00
03568            -380.00    13400.00
03569            -460.00    13600.00
03570            -460.00    13800.00
03571            -480.00    13800.00
03572            -500.00    13800.00
03573            -500.00    13800.00
03574            -540.00    14000.00
03575            -600.00    14000.00
03576            -660.00    14000.00
03577            -700.00    14000.00
03578            -740.00    14000.00
03579            -780.00    14000.00
03580            -800.00    14200.00
03581            -880.00    14200.00
03582            -960.00    14200.00
03583           -1020.00    14200.00
03584           -1100.00    14200.00
03585           -1180.00    14200.00
03586           -1260.00    14200.00
03587           -1340.00    14200.00
03588           -1440.00    14200.00
03589           -1540.00    14200.00
03590           -1660.00    14200.00
03591           -1780.00    14200.00
03592           -1900.00    14200.00
03593           -1980.00    14200.00
03594           -2060.00    14200.00
03595           -2140.00    14200.00
03596           -2180.00    14000.00
03597           -2240.00    14000.00
03598           -2240.00    14000.00
03599           -2240.00    13800.00
03600           -2180.00    13600.00
03601           -2140.00    13800.00
03602           -2080.00    13400.00
03603           -1980.00    13400.00
03604           -1840.00    13400.00
03605           -1740.00    13200.00
03606           -1600.00    13200.00
03607           -1460.00    13200.00
03608           -1360.00    13000.00
03609           -1260.00    13000.00
03610           -1140.00    12600.00
03611           -1040.00    12600.00
03612            -940.00    12600.00
03613            -860.00    12400.00
03614            -780.00    12200.00
03615            -720.00    12200.00
03616            -660.00    12200.00
03617            -620.00    11800.00
03618            -560.00    11800.00
03619            -500.00    11600.00
03620            -460.00    11400.00
03621            -420.00    11200.00
03622            -400.00    11000.00
03623            -400.00    10800.00
03624            -340.00    10600.00
03625            -320.00    10600.00
03626            -320.00    10200.00
03627            -300.00    10200.00
03628            -260.00     9800.00
03629            -260.00     9800.00
03630            -260.00     9600.00
03631            -240.00     9400.00
03632            -240.00     9200.00
03633            -220.00     9000.00
03634            -220.00     8600.00
03635            -200.00     8600.00
03636            -220.00     8200.00
03637            -220.00     8000.00
03638            -180.00     7800.00
03639            -180.00     7800.00
03640            -160.00     7400.00
03641            -160.00     7200.00
03642            -160.00     7000.00
03643            -160.00     6800.00
03644            -160.00     6600.00
03645            -140.00     6200.00
03646            -160.00     6000.00
03647            -140.00     5600.00
03648            -160.00     5800.00
03649            -140.00     5200.00
03650            -140.00     5200.00
03651            -140.00     4800.00
03652            -100.00     4400.00
03653            -100.00     4200.00
03654            -100.00     4000.00
03655            -120.00     3800.00
03656            -100.00     3600.00
03657            -120.00     3400.00
03658            -100.00     3000.00
03659            -100.00     2800.00
03660            -100.00     2200.00
03661             -80.00     2200.00
03662            -100.00     1800.00
03663            -100.00     1800.00
03664             -80.00     1400.00
03665             -80.00     1000.00
03666             -80.00     1000.00
03667             -80.00      600.00
03668             -80.00      400.00
03669             -80.00      200.00
03670             -60.00     -200.00
03671             -20.00     -400.00
03672             100.00     -600.00
03673             140.00     -800.00
03674             140.00    -1200.00
03675              60.00    -1400.00
03676              20.00    -1800.00
03677              20.00    -1800.00
03678             160.00    -2200.00
03679             720.00    -2200.00
03680            1140.00    -3000.00
03681             320.00    -3000.00
03682            -780.00    -3200.00
03683            -960.00    -3600.00
03684            -720.00    -3600.00
03685            -720.00    -3600.00
03686            -140.00    -4200.00
03687             480.00    -4800.00
03688             180.00    -4400.00
03689             340.00    -5000.00
03690               0.00    -5400.00
03691              60.00    -5200.00
03692             300.00    -5800.00
03693               0.00    -5800.00
03694             140.00    -6400.00
03695              60.00    -6400.00
03696             -20.00    -6600.00
03697            -140.00    -7400.00
03698              80.00    -7000.00
03699             100.00    -7600.00
03700            -100.00    -7400.00
03701             100.00    -8000.00
03702             140.00    -8000.00
03703              60.00    -8200.00
03704               0.00    -8600.00
03705             140.00    -8600.00
03706             100.00    -9200.00
03707               0.00    -9200.00
03708              40.00    -9400.00
03709              80.00    -9400.00
03710              60.00    -9800.00
03711              80.00   -10000.00
03712             160.00   -10000.00
03713             100.00   -10400.00
03714              80.00   -10600.00
03715             160.00   -10800.00
03716             160.00   -11000.00
03717             100.00   -11200.00
03718             140.00   -11400.00
03719             160.00   -11400.00
03720             140.00   -11400.00
03721             160.00   -11800.00
03722             220.00   -11800.00
03723             220.00   -12000.00
03724             180.00   -12200.00
03725             220.00   -12400.00
03726             220.00   -12400.00
03727             240.00   -12400.00
03728             260.00   -12600.00
03729             320.00   -12800.00
03730             260.00   -13000.00
03731             300.00   -13000.00
03732             320.00   -13200.00
03733             340.00   -13200.00
03734             380.00   -13400.00
03735             420.00   -13400.00
03736             400.00   -13400.00
03737             420.00   -13600.00
03738             460.00   -13600.00
03739             500.00   -13800.00
03740             540.00   -14000.00
03741             560.00   -14000.00
03742             640.00   -13800.00
03743             640.00   -14200.00
03744             660.00   -14000.00
03745             720.00   -14000.00
03746             780.00   -14000.00
03747             800.00   -14200.00
03748             860.00   -14200.00
03749             940.00   -14200.00
03750             980.00   -14200.00
03751            1040.00   -14200.00
03752            1140.00   -14200.00
03753            1220.00   -14400.00
03754            1320.00   -14200.00
03755            1440.00   -14200.00
03756            1580.00   -14200.00
03757            1660.00   -14200.00
03758            1740.00   -14200.00
03759            1860.00   -14200.00
03760            1940.00   -14200.00
03761            2060.00   -14000.00
03762            2100.00   -14000.00
03763            2180.00   -13600.00
03764            2220.00   -14000.00
03765            2240.00   -13800.00
03766            2220.00   -13800.00
03767            2180.00   -13800.00
03768            2140.00   -13600.00
03769            2080.00   -13600.00
03770            1980.00   -13400.00
03771            1860.00   -13400.00
03772            1740.00   -13400.00
03773            1600.00   -13200.00
03774            1500.00   -13200.00
03775            1360.00   -13000.00
03776            1260.00   -13000.00
03777            1120.00   -12800.00
03778            1020.00   -12800.00
03779             960.00   -12600.00
03780             860.00   -12600.00
03781             800.00   -12400.00
03782             720.00   -12200.00
03783             640.00   -12200.00
03784             580.00   -11800.00
03785             540.00   -11600.00
03786             480.00   -11400.00
03787             460.00   -11400.00
03788             420.00   -11200.00
03789             380.00   -11000.00
03790             380.00   -11000.00
03791             320.00   -10800.00
03792             320.00   -10800.00
03793             320.00   -10200.00
03794             300.00   -10200.00
03795             300.00   -10000.00
03796             240.00    -9800.00
03797             240.00    -9600.00
03798             220.00    -9400.00
03799             220.00    -9200.00
03800             220.00    -9000.00
03801             200.00    -8800.00
03802             180.00    -8600.00
03803             180.00    -8400.00
03804             160.00    -8200.00
03805             160.00    -7800.00
03806             180.00    -7600.00
03807             160.00    -7400.00
03808             160.00    -7200.00
03809             160.00    -7000.00
03810             140.00    -6800.00
03811             140.00    -6600.00
03812             140.00    -6400.00
03813             140.00    -6200.00
03814             140.00    -5800.00
03815             140.00    -5600.00
03816             140.00    -5400.00
03817             100.00    -5200.00
03818             100.00    -5000.00
03819             100.00    -4800.00
03820             100.00    -4400.00
03821             100.00    -4200.00
03822              80.00    -3800.00
03823              80.00    -3800.00
03824              80.00    -3200.00
03825              80.00    -3000.00
03826             100.00    -2800.00
03827             100.00    -2600.00
03828              80.00    -2200.00
03829              80.00    -2000.00
03830              80.00    -1800.00
03831              60.00    -1400.00
03832              80.00    -1400.00
03833              80.00    -1000.00
03834              60.00     -600.00
03835              60.00     -400.00
03836              60.00     -200.00
03837              80.00        0.00
03838             100.00      200.00
03839             160.00      600.00
03840             240.00      600.00
03841             220.00     1000.00
03842             160.00     1200.00
03843             140.00     1400.00
03844             160.00     1800.00
03845             340.00     2200.00
03846            1180.00     2600.00
03847            1260.00     2600.00
03848             -20.00     3000.00
03849           -1140.00     3000.00
03850           -1120.00     3400.00
03851            -940.00     3800.00
03852            -300.00     3800.00
03853             740.00     4000.00
03854             300.00     4400.00
03855             340.00     5000.00
03856             -60.00     4600.00
03857            -100.00     5600.00
03858             320.00     5600.00
03859            -120.00     5400.00
03860             220.00     6200.00
03861             140.00     5800.00
03862            -100.00     6800.00
03863            -140.00     6600.00
03864             -60.00     7000.00
03865             160.00     7400.00
03866            -140.00     7000.00
03867              80.00     7800.00
03868               0.00     7800.00
03869               0.00     8200.00
03870             -80.00     8200.00
03871               0.00     8400.00
03872              20.00     9000.00
03873            -120.00     8600.00
03874             -20.00     9400.00
03875            -100.00     9200.00
03876             -60.00     9600.00
03877            -140.00     9600.00
03878               0.00    10000.00
03879             -60.00    10200.00
03880             -80.00    10200.00
03881            -100.00    10600.00
03882            -100.00    10800.00
03883            -100.00    11000.00
03884            -160.00    11000.00
03885            -100.00    11400.00
03886            -180.00    11400.00
03887            -180.00    11400.00
03888            -160.00    11600.00
03889            -140.00    12000.00
03890            -180.00    12000.00
03891            -180.00    12200.00
03892            -240.00    12200.00
03893            -260.00    12400.00
03894            -240.00    12600.00
03895            -220.00    12600.00
03896            -300.00    13000.00
03897            -320.00    13000.00
03898            -320.00    13200.00
03899            -320.00    13200.00
03900            -320.00    13200.00
03901            -340.00    13400.00
03902            -380.00    13400.00
03903            -440.00    13400.00
03904            -460.00    13600.00
03905            -480.00    13600.00
03906            -500.00    13800.00
03907            -540.00    13800.00
03908            -540.00    13800.00
03909            -560.00    14000.00
03910            -640.00    13800.00
03911            -680.00    14200.00
03912            -720.00    14000.00
03913            -780.00    14200.00
03914            -820.00    14200.00
03915            -860.00    14200.00
03916            -940.00    14200.00
03917            -980.00    14200.00
03918           -1060.00    14200.00
03919           -1120.00    14200.00
03920           -1220.00    14200.00
03921           -1300.00    14200.00
03922           -1400.00    14200.00
03923           -1500.00    14200.00
03924           -1620.00    14200.00
03925           -1720.00    14000.00
03926           -1840.00    14200.00
03927           -1920.00    14200.00
03928           -2000.00    14000.00
03929           -2100.00    14000.00
03930           -2180.00    14000.00
03931           -2220.00    14000.00
03932           -2240.00    13800.00
03933           -2240.00    13800.00
03934           -2200.00    13800.00
03935           -2140.00    13800.00
03936           -2080.00    13600.00
03937           -2000.00    13600.00
03938           -1900.00    13400.00
03939           -1780.00    13200.00
03940           -1660.00    13400.00
03941           -1520.00    13200.00
03942           -1380.00    13200.00
03943           -1300.00    13000.00
03944           -1200.00    13000.00
03945           -1060.00    12600.00
03946            -980.00    12600.00
03947            -900.00    12400.00
03948            -800.00    12400.00
03949            -740.00    12000.00
03950            -680.00    12200.00
03951            -620.00    11800.00
03952            -580.00    11800.00
03953            -520.00    11400.00
03954            -480.00    11600.00
03955            -420.00    11400.00
03956            -420.00    11200.00
03957            -400.00    10800.00
03958            -380.00    10800.00
03959            -340.00    10600.00
03960            -320.00    10200.00
03961            -300.00    10200.00
03962            -260.00    10000.00
03963            -280.00     9800.00
03964            -260.00     9800.00
03965            -260.00     9400.00
03966            -240.00     9400.00
03967            -220.00     9000.00
03968            -220.00     8800.00
03969            -220.00     8400.00
03970            -220.00     8400.00
03971            -220.00     8200.00
03972            -200.00     7800.00
03973            -180.00     7800.00
03974            -160.00     7400.00
03975            -160.00     7400.00
03976            -160.00     7000.00
03977            -160.00     6800.00
03978            -160.00     6600.00
03979            -140.00     6200.00
03980            -140.00     6000.00
03981            -140.00     5800.00
03982            -140.00     5600.00
03983            -140.00     5400.00
03984            -140.00     5200.00
03985            -160.00     5000.00
03986            -100.00     4600.00
03987            -120.00     4400.00
03988            -100.00     4200.00
03989            -100.00     3800.00
03990            -120.00     3600.00
03991            -100.00     3400.00
03992            -100.00     3000.00
03993            -100.00     3000.00
03994            -100.00     2600.00
03995             -80.00     2400.00
03996            -100.00     2000.00
03997            -100.00     1800.00
03998             -80.00     1400.00
03999             -80.00     1200.00
04000             -80.00     1000.00
04001             -80.00      800.00
04002             -80.00      400.00
04003             -80.00      200.00
04004             -60.00     -200.00
04005             -40.00     -400.00
04006              60.00     -600.00
04007             140.00     -800.00
04008             140.00    -1000.00
04009              80.00    -1200.00
04010              20.00    -1600.00
04011              20.00    -1800.00
04012             100.00    -2000.00
04013             440.00    -2200.00
04014            1120.00    -2800.00
04015             740.00    -3000.00
04016            -440.00    -3200.00
04017           -1020.00    -3600.00
04018            -800.00    -3800.00
04019            -720.00    -3600.00
04020            -480.00    -3800.00
04021             420.00    -4600.00
04022             240.00    -4600.00
04023             300.00    -4600.00
04024             160.00    -5400.00
04025            -100.00    -5000.00
04026             300.00    -5800.00
04027              80.00    -5800.00
04028              80.00    -6200.00
04029             140.00    -6600.00
04030               0.00    -6200.00
04031            -140.00    -7400.00
04032             -20.00    -6800.00
04033             160.00    -7200.00
04034             -60.00    -7600.00
04035              20.00    -7800.00
04036             140.00    -8200.00
04037              60.00    -8000.00
04038               0.00    -8600.00
04039              80.00    -8600.00
04040             160.00    -8800.00
04041              20.00    -9400.00
04042              20.00    -9200.00
04043              80.00    -9400.00
04044              80.00    -9800.00
04045              60.00   -10000.00
04046             140.00   -10000.00
04047             140.00   -10200.00
04048              80.00   -10600.00
04049             140.00   -10600.00
04050             180.00   -10800.00
04051             140.00   -11000.00
04052             120.00   -11200.00
04053             160.00   -11400.00
04054             140.00   -11400.00
04055             140.00   -11600.00
04056             220.00   -11800.00
04057             240.00   -11800.00
04058             180.00   -12200.00
04059             220.00   -12200.00
04060             240.00   -12200.00
04061             220.00   -12400.00
04062             240.00   -12600.00
04063             320.00   -12600.00
04064             280.00   -13000.00
04065             260.00   -13000.00
04066             320.00   -13000.00
04067             340.00   -13200.00
04068             360.00   -13400.00
04069             420.00   -13200.00
04070             460.00   -13400.00
04071             420.00   -13600.00
04072             420.00   -13600.00
04073             480.00   -13600.00
04074             540.00   -13800.00
04075             540.00   -13800.00
04076             620.00   -13800.00
04077             640.00   -14000.00
04078             640.00   -14000.00
04079             700.00   -14000.00
04080             760.00   -14200.00
04081             800.00   -14000.00
04082             820.00   -14200.00
04083             940.00   -14200.00
04084             980.00   -14200.00
04085            1020.00   -14400.00
04086            1100.00   -14200.00
04087            1200.00   -14200.00
04088            1280.00   -14200.00
04089            1400.00   -14200.00
04090            1520.00   -14000.00
04091            1600.00   -14200.00
04092            1700.00   -14000.00
04093            1820.00   -14000.00
04094            1900.00   -14200.00
04095            2000.00   -14200.00
04096            2100.00   -14000.00
04097            2140.00   -14000.00
04098            2180.00   -14000.00
04099            2220.00   -13800.00
04100            2220.00   -13800.00
04101            2220.00   -13600.00
04102            2160.00   -13800.00
04103            2100.00   -13600.00
04104            2020.00   -13400.00
04105            1880.00   -13400.00
04106            1760.00   -13400.00
04107            1660.00   -13200.00
04108            1520.00   -13000.00
04109            1420.00   -13200.00
04110            1300.00   -13000.00
04111            1180.00   -12800.00
04112            1040.00   -12600.00
04113             960.00   -12400.00
04114             900.00   -12600.00
04115             800.00   -12400.00
04116             740.00   -12200.00
04117             660.00   -12000.00
04118             620.00   -12000.00
04119             540.00   -11800.00
04120             520.00   -11600.00
04121             480.00   -11400.00
04122             460.00   -11400.00
04123             420.00   -11200.00
04124             380.00   -11000.00
04125             360.00   -11000.00
04126             320.00   -10600.00
04127             320.00   -10400.00
04128             300.00   -10200.00
04129             300.00   -10000.00
04130             260.00    -9800.00
04131             240.00    -9600.00
04132             220.00    -9600.00
04133             220.00    -9200.00
04134             220.00    -9200.00
04135             220.00    -9000.00
04136             200.00    -8800.00
04137             180.00    -8600.00
04138             180.00    -8200.00
04139             180.00    -8200.00
04140             160.00    -7800.00
04141             160.00    -7600.00
04142             160.00    -7200.00
04143             160.00    -7000.00
04144             140.00    -6800.00
04145             140.00    -6800.00
04146             140.00    -6400.00
04147             140.00    -6200.00
04148             140.00    -6000.00
04149             140.00    -5800.00
04150             140.00    -5400.00
04151             120.00    -5400.00
04152             100.00    -5000.00
04153             100.00    -4800.00
04154             120.00    -4600.00
04155             100.00    -4200.00
04156             100.00    -3800.00
04157             100.00    -3600.00
04158              80.00    -3400.00
04159              80.00    -3200.00
04160              80.00    -2800.00
04161              80.00    -2600.00
04162             100.00    -2400.00
04163              80.00    -2200.00
04164              60.00    -2000.00
04165              60.00    -1600.00
04166              80.00    -1400.00
04167              60.00    -1200.00
04168              60.00     -800.00
04169              80.00     -600.00
04170              60.00     -400.00
04171              80.00        0.00
04172              80.00      400.00
04173             140.00      600.00
04174             220.00      600.00
04175             240.00     1000.00
04176             200.00     1200.00
04177             160.00     1400.00
04178             140.00     1800.00
04179             220.00     2000.00
04180             800.00     2400.00
04181            1440.00     2800.00
04182             540.00     3000.00
04183            -860.00     3000.00
04184           -1220.00     3400.00
04185            -960.00     3600.00
04186            -700.00     4000.00
04187             540.00     4200.00
04188             520.00     4200.00
04189             260.00     4800.00
04190             180.00     4600.00
04191            -260.00     5000.00
04192             280.00     5800.00
04193              20.00     5200.00
04194              40.00     6000.00
04195             300.00     6000.00
04196             -80.00     6400.00
04197            -100.00     6800.00
04198            -160.00     6600.00
04199             160.00     7400.00
04200             -20.00     7000.00
04201               0.00     7400.00
04202              80.00     7800.00
04203             -20.00     7800.00
04204             -20.00     8400.00
04205             -80.00     8200.00
04206              80.00     9000.00
04207            -100.00     8600.00
04208             -20.00     9200.00
04209             -80.00     9400.00
04210             -60.00     9400.00
04211            -100.00     9600.00
04212             -60.00     9800.00
04213               0.00    10000.00
04214            -140.00    10000.00
04215             -80.00    10400.00
04216            -100.00    10600.00
04217            -100.00    10800.00
04218            -180.00    11000.00
04219            -100.00    11400.00
04220            -160.00    11400.00
04221            -180.00    11400.00
04222            -160.00    11600.00
04223            -100.00    12000.00
04224            -180.00    12000.00
04225            -220.00    12200.00
04226            -240.00    12200.00
04227            -260.00    12400.00
04228            -260.00    12400.00
04229            -220.00    12600.00
04230            -240.00    12800.00
04231            -300.00    12800.00
04232            -320.00    13000.00
04233            -340.00    13200.00
04234            -340.00    13200.00
04235            -320.00    13400.00
04236            -340.00    13400.00
04237            -420.00    13400.00
04238            -460.00    13400.00
04239            -460.00    13800.00
04240            -500.00    13800.00
04241            -500.00    13800.00
04242            -520.00    13800.00
04243            -560.00    14000.00
04244            -620.00    14000.00
04245            -640.00    14000.00
04246            -660.00    14000.00
04247            -740.00    14200.00
04248            -800.00    14200.00
04249            -840.00    14200.00
04250            -900.00    14200.00
04251            -960.00    14200.00
04252           -1020.00    14200.00
04253           -1100.00    14200.00
04254           -1200.00    14200.00
04255           -1280.00    14200.00
04256           -1340.00    14400.00
04257           -1440.00    14200.00
04258           -1600.00    14200.00
04259           -1700.00    14200.00
04260           -1820.00    14200.00
04261           -1900.00    14200.00
04262           -1960.00    14000.00
04263           -2060.00    14200.00
04264           -2140.00    14200.00
04265           -2220.00    14000.00
04266           -2240.00    14000.00
04267           -2220.00    14000.00
04268           -2200.00    13800.00
04269           -2180.00    13800.00
04270           -2100.00    13600.00
04271           -2020.00    13400.00
04272           -1940.00    13400.00
04273           -1820.00    13400.00
04274           -1700.00    13400.00
04275           -1560.00    13200.00
04276           -1440.00    13200.00
04277           -1300.00    13000.00
04278           -1220.00    13000.00
04279           -1120.00    12800.00
04280           -1020.00    12800.00
04281            -900.00    12400.00
04282            -820.00    12200.00
04283            -740.00    12200.00
04284            -700.00    12200.00
04285            -640.00    12000.00
04286            -600.00    11800.00
04287            -540.00    11600.00
04288            -500.00    11600.00
04289            -460.00    11400.00
04290            -420.00    11200.00
04291            -420.00    11000.00
04292            -400.00    10800.00
04293            -360.00    10600.00
04294            -340.00    10400.00
04295            -300.00    10200.00
04296            -300.00    10200.00
04297            -280.00     9800.00
04298            -280.00     9800.00
04299            -260.00     9600.00
04300            -260.00     9400.00
04301            -240.00     9200.00
04302            -240.00     9000.00
04303            -220.00     8600.00
04304            -220.00     8400.00
04305            -220.00     8200.00
04306            -220.00     8200.00
04307            -200.00     7800.00
04308            -180.00     7600.00
04309            -160.00     7400.00
04310            -160.00     7200.00
04311            -160.00     6800.00
04312            -160.00     6600.00
04313            -160.00     6600.00
04314            -140.00     6200.00
04315            -160.00     6000.00
04316            -140.00     5800.00
04317            -140.00     5600.00
04318            -140.00     5200.00
04319            -140.00     5000.00
04320            -140.00     4600.00
04321            -120.00     4600.00
04322            -100.00     4200.00
04323            -100.00     3800.00
04324            -120.00     3800.00
04325            -140.00     3400.00
04326            -100.00     3200.00
04327            -100.00     3000.00
04328            -100.00     2800.00
04329            -100.00     2600.00
04330            -100.00     2200.00
04331             -80.00     2000.00
04332             -80.00     1800.00
04333             -80.00     1400.00
04334             -80.00     1000.00
04335             -80.00     1000.00
04336             -80.00      600.00
04337             -80.00      400.00
04338             -60.00      200.00
04339             -20.00     -400.00
04340               0.00     -400.00
04341             140.00     -600.00
04342             140.00     -800.00
04343              80.00    -1000.00
04344              60.00    -1400.00
04345              20.00    -1600.00
04346              60.00    -1800.00
04347             240.00    -2200.00
04348             900.00    -2600.00
04349            1020.00    -3000.00
04350               0.00    -3200.00
04351            -940.00    -3400.00
04352            -920.00    -3600.00
04353            -700.00    -3800.00
04354            -700.00    -3800.00
04355             140.00    -4200.00
04356             400.00    -4800.00
04357             220.00    -4600.00
04358             300.00    -5200.00
04359            -100.00    -5200.00
04360             160.00    -5400.00
04361             220.00    -6000.00
04362              20.00    -6000.00
04363             160.00    -6600.00
04364               0.00    -6200.00
04365            -100.00    -6800.00
04366            -140.00    -7000.00
04367             140.00    -7000.00
04368               0.00    -7600.00
04369             -80.00    -7600.00
04370             140.00    -8200.00
04371              80.00    -8000.00
04372              20.00    -8400.00
04373              20.00    -8800.00
04374             160.00    -8600.00
04375              80.00    -9200.00
04376              20.00    -9200.00
04377              60.00    -9400.00
04378              80.00    -9800.00
04379              60.00   -10000.00
04380              80.00   -10000.00
04381             160.00   -10000.00
04382              80.00   -10600.00
04383             120.00   -10600.00
04384             160.00   -10600.00
04385             160.00   -11000.00
04386             100.00   -11200.00
04387             160.00   -11200.00
04388             140.00   -11400.00
04389             120.00   -11600.00
04390             160.00   -11600.00
04391             220.00   -11800.00
04392             180.00   -12200.00
04393             220.00   -12200.00
04394             240.00   -12200.00
04395             240.00   -12400.00
04396             240.00   -12600.00
04397             300.00   -12600.00
04398             300.00   -12800.00
04399             260.00   -13000.00
04400             300.00   -13000.00
04401             340.00   -13200.00
04402             340.00   -13200.00
04403             380.00   -13400.00
04404             420.00   -13400.00
04405             420.00   -13400.00
04406             420.00   -13400.00
04407             460.00   -13800.00
04408             500.00   -13600.00
04409             540.00   -13800.00
04410             580.00   -13600.00
04411             640.00   -14000.00
04412             640.00   -14000.00
04413             660.00   -14000.00
04414             740.00   -14000.00
04415             800.00   -14000.00
04416             820.00   -14200.00
04417             880.00   -14200.00
04418             960.00   -14200.00
04419             980.00   -14200.00
04420            1060.00   -14200.00
04421            1180.00   -14200.00
04422            1260.00   -14200.00
04423            1360.00   -14200.00
04424            1460.00   -14200.00
04425            1580.00   -14200.00
04426            1660.00   -14200.00
04427            1760.00   -14200.00
04428            1880.00   -14000.00
04429            1960.00   -14200.00
04430            2060.00   -14000.00
04431            2140.00   -14000.00
04432            2160.00   -14000.00
04433            2180.00   -13800.00
04434            2240.00   -13800.00
04435            2220.00   -13600.00
04436            2180.00   -13600.00
04437            2140.00   -13600.00
04438            2040.00   -13600.00
04439            1940.00   -13400.00
04440            1800.00   -13400.00
04441            1700.00   -13400.00
04442            1580.00   -13200.00
04443            1460.00   -13200.00
04444            1360.00   -13000.00
04445            1240.00   -12600.00
04446            1100.00   -12800.00
04447            1000.00   -12600.00
04448             940.00   -12600.00
04449             840.00   -12600.00
04450             780.00   -12200.00
04451             700.00   -12200.00
04452             640.00   -12000.00
04453             560.00   -11800.00
04454             540.00   -11600.00
04455             500.00   -11400.00
04456             460.00   -11400.00
04457             420.00   -11000.00
04458             400.00   -11000.00
04459             340.00   -11000.00
04460             320.00   -10600.00
04461             320.00   -10600.00
04462             300.00   -10200.00
04463             300.00   -10200.00
04464             260.00    -9800.00
04465             240.00    -9800.00
04466             220.00    -9400.00
04467             220.00    -9400.00
04468             220.00    -9200.00
04469             220.00    -9000.00
04470             220.00    -8800.00
04471             200.00    -8600.00
04472             180.00    -8200.00
04473             160.00    -8200.00
04474             140.00    -7800.00
04475             160.00    -7600.00
04476             160.00    -7200.00
04477             160.00    -7000.00
04478             140.00    -7000.00
04479             160.00    -6600.00
04480             140.00    -6600.00
04481             140.00    -6200.00
04482             160.00    -6000.00
04483             140.00    -5800.00
04484             100.00    -5400.00
04485             100.00    -5200.00
04486             100.00    -5000.00
04487             100.00    -4800.00
04488             100.00    -4600.00
04489             100.00    -4200.00
04490             100.00    -4200.00
04491              80.00    -3800.00
04492              80.00    -3400.00
04493              80.00    -3400.00
04494              80.00    -3000.00
04495              80.00    -2800.00
04496              80.00    -2600.00
04497              80.00    -2200.00
04498              80.00    -2000.00
04499              80.00    -1800.00
04500              60.00    -1400.00
04501              60.00    -1200.00
04502              60.00     -800.00
04503              80.00     -600.00
04504              80.00     -400.00
04505              80.00     -200.00
04506              80.00      200.00
04507             100.00      400.00
04508             200.00      600.00
04509             240.00     1000.00
04510             220.00     1000.00
04511             160.00     1200.00
04512             140.00     1800.00
04513             180.00     1800.00
04514             520.00     2200.00
04515            1340.00     2600.00
04516            1040.00     2800.00
04517            -400.00     3000.00
04518           -1220.00     3000.00
04519           -1040.00     3400.00
04520            -900.00     3800.00
04521              80.00     4000.00
04522             720.00     4200.00
04523             240.00     4600.00
04524             340.00     5000.00
04525            -200.00     4600.00
04526              60.00     5800.00
04527             240.00     5600.00
04528            -100.00     5600.00
04529             320.00     6200.00
04530              20.00     6000.00
04531            -100.00     6800.00
04532            -180.00     6600.00
04533              60.00     7200.00
04534             100.00     7400.00
04535            -100.00     7200.00
04536             100.00     7800.00
04537             -60.00     7800.00
04538               0.00     8400.00
04539             -80.00     8200.00
04540              60.00     8600.00
04541             -60.00     8800.00
04542             -80.00     8800.00
04543             -20.00     9200.00
04544            -100.00     9400.00
04545             -80.00     9800.00
04546            -100.00     9800.00
04547              60.00    10000.00
04548            -100.00    10200.00
04549             -80.00    10600.00
04550            -140.00    10600.00
04551            -100.00    10800.00
04552            -160.00    11000.00
04553            -120.00    11000.00
04554            -140.00    11400.00
04555            -220.00    11400.00
04556            -180.00    11600.00
04557            -160.00    11800.00
04558            -160.00    12000.00
04559            -200.00    12200.00
04560            -220.00    12200.00
04561            -260.00    12200.00
04562            -260.00    12400.00
04563            -220.00    12600.00
04564            -240.00    12800.00
04565            -300.00    12800.00
04566            -320.00    12800.00
04567            -340.00    13200.00
04568            -340.00    13200.00
04569            -340.00    13200.00
04570            -340.00    13400.00
04571            -400.00    13400.00
04572            -460.00    13400.00
04573            -460.00    13600.00
04574            -480.00    13800.00
04575            -520.00    13800.00
04576            -500.00    13800.00
04577            -500.00    14000.00
04578            -580.00    14000.00
04579            -640.00    14000.00
04580            -700.00    14000.00
04581            -720.00    14200.00
04582            -780.00    14200.00
04583            -800.00    14200.00
04584            -880.00    14000.00
04585            -960.00    14200.00
04586           -1040.00    14400.00
04587           -1060.00    14200.00
04588           -1160.00    14200.00
04589           -1220.00    14200.00
04590           -1300.00    14400.00
04591           -1420.00    14200.00
04592           -1540.00    14200.00
04593           -1660.00    14200.00
04594           -1760.00    14200.00
04595           -1860.00    14200.00
04596           -1940.00    14200.00
04597           -2020.00    14000.00
04598           -2100.00    14200.00
04599           -2160.00    14000.00
04600           -2180.00    14000.00
04601           -2240.00    14000.00
04602           -2240.00    14000.00
04603           -2220.00    13800.00
04604           -2140.00    13800.00
04605           -2080.00    13600.00
04606           -2000.00    13400.00
04607           -1860.00    13600.00
04608           -1740.00    13200.00
04609           -1620.00    13400.00
04610           -1480.00    13200.00
04611           -1380.00    13000.00
04612           -1260.00    13000.00
04613           -1140.00    13000.00
04614           -1060.00    12600.00
04615            -960.00    12600.00
04616            -880.00    12400.00
04617            -800.00    12200.00
04618            -740.00    12200.00
04619            -680.00    12000.00
04620            -640.00    11800.00
04621            -560.00    11800.00
04622            -500.00    11600.00
04623            -480.00    11400.00
04624            -460.00    11400.00
04625            -420.00    11000.00
04626            -400.00    10800.00
04627            -380.00    10800.00
04628            -340.00    10600.00
04629            -320.00    10400.00
04630            -300.00    10200.00
04631            -300.00    10000.00
04632            -300.00    10000.00
04633            -260.00     9600.00
04634            -260.00     9400.00
04635            -240.00     9200.00
04636            -240.00     9200.00
04637            -220.00     8600.00
04638            -220.00     8600.00
04639            -220.00     8400.00
04640            -220.00     8200.00
04641            -200.00     8000.00
04642            -180.00     7800.00
04643            -160.00     7400.00
04644            -160.00     7400.00
04645            -160.00     7000.00
04646            -160.00     6800.00
04647            -160.00     6600.00
04648            -160.00     6200.00
04649            -140.00     6200.00
04650            -140.00     5800.00
04651            -160.00     5600.00
04652            -160.00     5600.00
04653            -140.00     5000.00
04654            -140.00     4800.00
04655            -100.00     4400.00
04656            -120.00     4400.00
04657            -100.00     4200.00
04658            -100.00     3800.00
04659            -100.00     3600.00
04660            -100.00     3400.00
04661            -100.00     3000.00
04662            -100.00     2800.00
04663            -100.00     2600.00
04664            -100.00     2200.00
04665            -100.00     2000.00
04666             -80.00     1800.00
04667             -80.00     1400.00
04668             -80.00     1200.00
04669             -80.00     1000.00
04670             -80.00      600.00
04671             -80.00      400.00
04672             -80.00      200.00
04673             -60.00     -200.00
04674             -20.00     -400.00
04675              80.00     -600.00
04676             140.00    -1000.00
04677             100.00    -1000.00
04678              40.00    -1200.00
04679              20.00    -1600.00
04680              20.00    -2000.00
04681             140.00    -2000.00
04682             620.00    -2200.00
04683            1140.00    -3000.00
04684             420.00    -3000.00
04685            -700.00    -3400.00
04686           -1020.00    -3600.00
04687            -740.00    -3600.00
04688            -740.00    -3800.00
04689            -260.00    -4200.00
04690             480.00    -4800.00
04691             180.00    -4400.00
04692             320.00    -5000.00
04693              20.00    -5600.00
04694             -20.00    -5200.00
04695             300.00    -5800.00
04696              20.00    -5800.00
04697             100.00    -6400.00
04698              80.00    -6400.00
04699             -60.00    -6600.00
04700            -140.00    -7200.00
04701              20.00    -6800.00
04702             100.00    -7400.00
04703            -100.00    -7600.00
04704              80.00    -7800.00
04705             140.00    -8200.00
04706              60.00    -8200.00
04707               0.00    -8600.00
04708             140.00    -8600.00
04709             140.00    -9000.00
04710              20.00    -9200.00
04711              60.00    -9200.00
04712             100.00    -9600.00
04713              60.00    -9800.00
04714              60.00   -10000.00
04715             160.00   -10000.00
04716              80.00   -10400.00
04717             100.00   -10600.00
04718             160.00   -10600.00
04719             160.00   -11000.00
04720             100.00   -11000.00
04721             160.00   -11400.00
04722             160.00   -11400.00
04723             140.00   -11600.00
04724             160.00   -11800.00
04725             220.00   -11800.00
04726             220.00   -11800.00
04727             180.00   -12200.00
04728             220.00   -12200.00
04729             220.00   -12400.00
04730             220.00   -12400.00
04731             260.00   -12600.00
04732             320.00   -12800.00
04733             260.00   -12800.00
04734             300.00   -13000.00
04735             320.00   -13200.00
04736             340.00   -13000.00
04737             380.00   -13200.00
04738             400.00   -13400.00
04739             420.00   -13400.00
04740             420.00   -13400.00
04741             460.00   -13800.00
04742             500.00   -13600.00
04743             500.00   -13800.00
04744             560.00   -13800.00
04745             640.00   -14000.00
04746             640.00   -14000.00
04747             640.00   -14000.00
04748             700.00   -14000.00
04749             740.00   -14200.00
04750             800.00   -14200.00
04751             860.00   -14200.00
04752             940.00   -14000.00
04753             980.00   -14200.00
04754            1040.00   -14200.00
04755            1120.00   -14200.00
04756            1220.00   -14200.00
04757            1300.00   -14200.00
04758            1440.00   -14200.00
04759            1520.00   -14200.00
04760            1600.00   -14200.00
04761            1740.00   -14200.00
04762            1840.00   -14000.00
04763            1920.00   -14200.00
04764            2020.00   -14200.00
04765            2100.00   -14000.00
04766            2160.00   -14000.00
04767            2180.00   -14000.00
04768            2220.00   -13800.00
04769            2220.00   -14000.00
04770            2180.00   -13600.00
04771            2140.00   -13600.00
04772            2080.00   -13400.00
04773            2000.00   -13400.00
04774            1860.00   -13400.00
04775            1760.00   -13200.00
04776            1620.00   -13200.00
04777            1500.00   -13200.00
04778            1400.00   -13200.00
04779            1280.00   -13000.00
04780            1180.00   -12800.00
04781            1040.00   -12600.00
04782             940.00   -12600.00
04783             860.00   -12400.00
04784             800.00   -12200.00
04785             740.00   -12200.00
04786             660.00   -12200.00
04787             600.00   -11800.00
04788             540.00   -11600.00
04789             500.00   -11400.00
04790             480.00   -11400.00
04791             460.00   -11400.00
04792             400.00   -11000.00
04793             380.00   -11000.00
04794             320.00   -10800.00
04795             320.00   -10600.00
04796             320.00   -10400.00
04797             300.00   -10200.00
04798             300.00   -10000.00
04799             260.00    -9800.00
04800             240.00    -9800.00
04801             220.00    -9400.00
04802             220.00    -9200.00
04803             220.00    -9000.00
04804             220.00    -9000.00
04805             220.00    -8600.00
04806             160.00    -8400.00
04807             180.00    -8200.00
04808             160.00    -8000.00
04809             160.00    -7800.00
04810             140.00    -7600.00
04811             160.00    -7200.00
04812             160.00    -7000.00
04813             140.00    -6800.00
04814             140.00    -6600.00
04815             100.00    -6200.00
04816             140.00    -6200.00
04817             100.00    -5800.00
04818             140.00    -5600.00
04819             140.00    -5400.00
04820             100.00    -5200.00
04821             100.00    -5000.00
04822             100.00    -4600.00
04823             100.00    -4400.00
04824             100.00    -4200.00
04825             100.00    -3800.00
04826             100.00    -3800.00
04827              80.00    -3400.00
04828              60.00    -3000.00
04829              60.00    -2800.00
04830              80.00    -2600.00
04831              80.00    -2200.00
04832             100.00    -2200.00
04833             100.00    -2000.00
04834              60.00    -1400.00
04835              60.00    -1200.00
04836              60.00    -1000.00
04837              60.00     -600.00
04838              80.00     -400.00
04839              80.00     -200.00
04840              80.00      200.00
04841              80.00      400.00
04842             160.00      600.00
04843             240.00      800.00
04844             240.00     1000.00
04845             160.00     1200.00
04846             160.00     1400.00
04847             160.00     1800.00
04848             320.00     2200.00
04849            1060.00     2600.00
04850            1340.00     3000.00
04851             160.00     3000.00
04852           -1060.00     3000.00
04853           -1140.00     3400.00
04854            -920.00     3800.00
04855            -400.00     4000.00
04856             740.00     4200.00
04857             340.00     4200.00
04858             340.00     5000.00
04859              60.00     4600.00
04860            -180.00     5200.00
04861             320.00     5800.00
04862             -80.00     5200.00
04863             160.00     6200.00
04864             200.00     6000.00
04865            -100.00     6600.00
04866            -140.00     6600.00
04867             -80.00     6600.00
04868             160.00     7600.00
04869            -100.00     7000.00
04870              60.00     7800.00
04871               0.00     7800.00
04872             -20.00     8200.00
04873             -60.00     8200.00
04874               0.00     8400.00
04875              60.00     9000.00
04876            -140.00     8600.00
04877             -20.00     9200.00
04878            -100.00     9200.00
04879             -60.00     9600.00
04880            -160.00     9800.00
04881               0.00    10000.00
04882             -60.00    10000.00
04883            -120.00    10000.00
04884            -100.00    10600.00
04885            -140.00    10600.00
04886            -120.00    10800.00
04887            -140.00    11000.00
04888            -100.00    11000.00
04889            -200.00    11400.00
04890            -180.00    11600.00
04891            -160.00    11800.00
04892            -160.00    12000.00
04893            -180.00    12000.00
04894            -220.00    12200.00
04895            -240.00    12200.00
04896            -260.00    12400.00
04897            -240.00    12600.00
04898            -220.00    12600.00
04899            -260.00    13000.00
04900            -320.00    13000.00
04901            -320.00    13000.00
04902            -320.00    13200.00
04903            -320.00    13200.00
04904            -340.00    13400.00
04905            -340.00    13400.00
04906            -420.00    13400.00
04907            -440.00    13600.00
04908            -460.00    13800.00
04909            -500.00    13800.00
04910            -500.00    13800.00
04911            -540.00    13800.00
04912            -580.00    14000.00
04913            -660.00    14000.00
04914            -660.00    14000.00
04915            -700.00    14200.00
04916            -740.00    14200.00
04917            -800.00    14200.00
04918            -820.00    14000.00
04919            -900.00    14200.00
04920            -980.00    14200.00
04921           -1040.00    14200.00
04922           -1120.00    14200.00
04923           -1220.00    14200.00
04924           -1280.00    14200.00
04925           -1380.00    14200.00
04926           -1500.00    14400.00
04927           -1600.00    14200.00
04928           -1700.00    14200.00
04929           -1840.00    14200.00
04930           -1920.00    14200.00
04931           -2000.00    14200.00
04932           -2060.00    14000.00
04933           -2160.00    14200.00
04934           -2180.00    14000.00
04935           -2240.00    13800.00
04936           -2240.00    14000.00
04937           -2200.00    13800.00
04938           -2160.00    13800.00
04939           -2100.00    13800.00
04940           -2020.00    13400.00
04941           -1920.00    13600.00
04942           -1820.00    13200.00
04943           -1680.00    13400.00
04944           -1540.00    13200.00
04945           -1420.00    13000.00
04946           -1300.00    13000.00
04947           -1200.00    12800.00
04948           -1060.00    12600.00
04949           -1000.00    12400.00
04950            -900.00    12400.00
04951            -820.00    12400.00
04952            -740.00    12200.00
04953            -700.00    12200.00
04954            -640.00    12000.00
04955            -580.00    11800.00
04956            -540.00    11600.00
04957            -500.00    11400.00
04958            -460.00    11400.00
04959            -420.00    11000.00
04960            -400.00    11000.00
04961            -380.00    10800.00
04962            -340.00    10600.00
04963            -340.00    10400.00
04964            -320.00    10200.00
04965            -300.00    10000.00
04966            -260.00     9800.00
04967            -260.00     9800.00
04968            -240.00     9400.00
04969            -240.00     9200.00
04970            -240.00     9200.00
04971            -220.00     8600.00
04972            -220.00     8600.00
04973            -220.00     8400.00
04974            -220.00     8200.00
04975            -180.00     8000.00
04976            -180.00     7600.00
04977            -160.00     7400.00
04978            -160.00     7400.00
04979            -160.00     7000.00
04980            -180.00     6800.00
04981            -160.00     6600.00
04982            -140.00     6400.00
04983            -140.00     6200.00
04984            -140.00     5800.00
04985            -160.00     5800.00
04986            -160.00     5400.00
04987            -140.00     5200.00
04988            -120.00     5000.00
04989            -100.00     4600.00
04990            -100.00     4600.00
04991            -100.00     4200.00
04992            -100.00     3800.00
04993            -100.00     3600.00
04994            -100.00     3400.00
04995            -100.00     3200.00
04996            -100.00     2800.00
04997            -100.00     2600.00
04998             -80.00     2200.00
04999             -80.00     2000.00
05000             -80.00     1800.00
