Unit:(mV)
                     CH1         CH2
Frequency              ? 299.126 kHz
00001             120.00    -2000.00
00002             520.00    -2200.00
00003            1240.00    -2800.00
00004             640.00    -3000.00
00005            -600.00    -3400.00
00006           -1160.00    -3600.00
00007            -960.00    -3800.00
00008            -920.00    -3800.00
00009            -480.00    -4000.00
00010             480.00    -4600.00
00011             320.00    -4400.00
00012             480.00    -4600.00
00013             200.00    -5400.00
00014            -120.00    -5000.00
00015             280.00    -5800.00
00016              40.00    -5800.00
00017              40.00    -6400.00
00018              80.00    -6600.00
00019             -40.00    -6200.00
00020            -200.00    -7200.00
00021             -40.00    -6800.00
00022             160.00    -7400.00
00023             -40.00    -7600.00
00024              40.00    -7600.00
00025             160.00    -8200.00
00026              40.00    -8000.00
00027               0.00    -8600.00
00028             120.00    -8600.00
00029             160.00    -8800.00
00030              40.00    -9200.00
00031              40.00    -9200.00
00032               0.00    -9400.00
00033             120.00    -9400.00
00034              40.00   -10000.00
00035             120.00   -10000.00
00036             120.00   -10200.00
00037             120.00   -10600.00
00038             160.00   -10600.00
00039             160.00   -10800.00
00040             120.00   -11000.00
00041             120.00   -11000.00
00042             160.00   -11400.00
00043             160.00   -11400.00
00044             160.00   -11600.00
00045             200.00   -11800.00
00046             200.00   -11800.00
00047             200.00   -12200.00
00048             200.00   -12200.00
00049             280.00   -12200.00
00050             200.00   -12400.00
00051             280.00   -12400.00
00052             280.00   -12600.00
00053             280.00   -12800.00
00054             280.00   -13000.00
00055             320.00   -13000.00
00056             360.00   -13200.00
00057             360.00   -13200.00
00058             440.00   -13400.00
00059             440.00   -13200.00
00060             440.00   -13400.00
00061             440.00   -13400.00
00062             480.00   -13600.00
00063             520.00   -13800.00
00064             520.00   -13800.00
00065             600.00   -13600.00
00066             640.00   -14000.00
00067             640.00   -14000.00
00068             640.00   -14000.00
00069             760.00   -14000.00
00070             800.00   -14200.00
00071             840.00   -14000.00
00072             960.00   -14200.00
00073             960.00   -14000.00
00074            1000.00   -14200.00
00075            1080.00   -14200.00
00076            1240.00   -14200.00
00077            1280.00   -14200.00
00078            1440.00   -14200.00
00079            1560.00   -14200.00
00080            1600.00   -14200.00
00081            1760.00   -14200.00
00082            1840.00   -14000.00
00083            1920.00   -14000.00
00084            2040.00   -14000.00
00085            2120.00   -14000.00
00086            2200.00   -13800.00
00087            2200.00   -13600.00
00088            2200.00   -13800.00
00089            2200.00   -13600.00
00090            2200.00   -13600.00
00091            2120.00   -13600.00
00092            2080.00   -13400.00
00093            1920.00   -13400.00
00094            1760.00   -13200.00
00095            1680.00   -13200.00
00096            1560.00   -13200.00
00097            1400.00   -13000.00
00098            1320.00   -13000.00
00099            1240.00   -13000.00
00100            1080.00   -12600.00
00101             960.00   -12600.00
00102             840.00   -12600.00
00103             800.00   -12400.00
00104             760.00   -12200.00
00105             640.00   -12200.00
00106             640.00   -12200.00
00107             520.00   -11800.00
00108             480.00   -11600.00
00109             440.00   -11400.00
00110             440.00   -11400.00
00111             440.00   -11400.00
00112             360.00   -11000.00
00113             360.00   -11000.00
00114             320.00   -10600.00
00115             280.00   -10600.00
00116             280.00   -10400.00
00117             280.00   -10000.00
00118             280.00   -10000.00
00119             200.00    -9800.00
00120             280.00    -9400.00
00121             200.00    -9400.00
00122             200.00    -9200.00
00123             200.00    -9000.00
00124             160.00    -8800.00
00125             200.00    -8600.00
00126             160.00    -8400.00
00127             160.00    -8200.00
00128             160.00    -8000.00
00129             160.00    -7800.00
00130             160.00    -7600.00
00131             120.00    -7400.00
00132             120.00    -7000.00
00133             120.00    -6800.00
00134             120.00    -6600.00
00135             120.00    -6200.00
00136             120.00    -6000.00
00137             120.00    -5800.00
00138             120.00    -5600.00
00139             120.00    -5400.00
00140             120.00    -5000.00
00141              40.00    -5000.00
00142              80.00    -4600.00
00143             120.00    -4400.00
00144             120.00    -4200.00
00145             120.00    -3800.00
00146              80.00    -3600.00
00147             120.00    -3400.00
00148              40.00    -3000.00
00149              40.00    -2800.00
00150              40.00    -2600.00
00151             120.00    -2200.00
00152              40.00    -2000.00
00153              40.00    -2000.00
00154              40.00    -1400.00
00155              40.00    -1400.00
00156              40.00     -800.00
00157              40.00     -600.00
00158              80.00     -400.00
00159             120.00     -200.00
00160              40.00      200.00
00161              40.00      400.00
00162             160.00      600.00
00163             280.00      800.00
00164             280.00     1000.00
00165             240.00     1200.00
00166             160.00     1400.00
00167             120.00     1800.00
00168             280.00     2200.00
00169            1040.00     2600.00
00170            1480.00     2800.00
00171             360.00     3000.00
00172           -1080.00     3200.00
00173           -1400.00     3200.00
00174           -1240.00     3600.00
00175            -680.00     4200.00
00176             760.00     4000.00
00177             600.00     4200.00
00178             480.00     4800.00
00179             280.00     4600.00
00180            -200.00     5200.00
00181             280.00     6000.00
00182             -40.00     5200.00
00183             120.00     6200.00
00184             200.00     6000.00
00185             -40.00     6600.00
00186            -120.00     6600.00
00187            -160.00     6600.00
00188             160.00     7400.00
00189            -120.00     7000.00
00190              40.00     7800.00
00191              40.00     7800.00
00192             -40.00     8000.00
00193             -40.00     8400.00
00194               0.00     8200.00
00195               0.00     9000.00
00196            -120.00     8600.00
00197               0.00     9200.00
00198            -120.00     9200.00
00199             -40.00     9600.00
00200            -160.00     9600.00
00201             -40.00     9800.00
00202             -40.00    10200.00
00203            -120.00    10200.00
00204            -120.00    10600.00
00205            -160.00    10600.00
00206            -120.00    10800.00
00207            -160.00    11000.00
00208            -120.00    11200.00
00209            -200.00    11200.00
00210            -200.00    11400.00
00211            -200.00    11800.00
00212            -160.00    11800.00
00213            -200.00    12000.00
00214            -200.00    12200.00
00215            -200.00    12200.00
00216            -320.00    12200.00
00217            -200.00    12400.00
00218            -200.00    12400.00
00219            -280.00    13000.00
00220            -320.00    12600.00
00221            -320.00    13000.00
00222            -360.00    13000.00
00223            -320.00    13000.00
00224            -320.00    13400.00
00225            -320.00    13400.00
00226            -440.00    13400.00
00227            -440.00    13600.00
00228            -480.00    13800.00
00229            -520.00    13800.00
00230            -520.00    13800.00
00231            -520.00    13800.00
00232            -520.00    13800.00
00233            -640.00    14000.00
00234            -680.00    14000.00
00235            -760.00    14000.00
00236            -760.00    14000.00
00237            -800.00    14200.00
00238            -840.00    14200.00
00239            -960.00    14200.00
00240           -1000.00    14000.00
00241           -1080.00    14200.00
00242           -1120.00    14200.00
00243           -1240.00    14200.00
00244           -1280.00    14200.00
00245           -1400.00    14200.00
00246           -1520.00    14200.00
00247           -1600.00    14200.00
00248           -1760.00    14200.00
00249           -1880.00    14200.00
00250           -1920.00    14200.00
00251           -2040.00    14000.00
00252           -2120.00    14000.00
00253           -2160.00    14000.00
00254           -2200.00    14000.00
00255           -2240.00    13800.00
00256           -2240.00    13800.00
00257           -2200.00    13800.00
00258           -2120.00    13800.00
00259           -2080.00    13800.00
00260           -1960.00    13600.00
00261           -1840.00    13400.00
00262           -1760.00    13400.00
00263           -1600.00    13200.00
00264           -1480.00    13200.00
00265           -1320.00    13000.00
00266           -1240.00    13000.00
00267           -1120.00    12600.00
00268           -1040.00    12800.00
00269            -960.00    12600.00
00270            -840.00    12400.00
00271            -760.00    12400.00
00272            -680.00    12200.00
00273            -640.00    12200.00
00274            -600.00    11800.00
00275            -560.00    11800.00
00276            -520.00    11600.00
00277            -480.00    11400.00
00278            -440.00    11200.00
00279            -360.00    11000.00
00280            -360.00    11000.00
00281            -360.00    10800.00
00282            -320.00    10600.00
00283            -320.00    10400.00
00284            -320.00    10200.00
00285            -320.00    10000.00
00286            -280.00     9800.00
00287            -280.00     9600.00
00288            -240.00     9400.00
00289            -240.00     9200.00
00290            -200.00     9200.00
00291            -200.00     8800.00
00292            -200.00     8600.00
00293            -200.00     8400.00
00294            -200.00     8200.00
00295            -200.00     8000.00
00296            -200.00     7800.00
00297            -160.00     7600.00
00298            -160.00     7400.00
00299            -160.00     7000.00
00300            -160.00     6800.00
00301            -160.00     6600.00
00302            -160.00     6400.00
00303            -160.00     6200.00
00304            -160.00     5800.00
00305            -120.00     5600.00
00306            -160.00     5400.00
00307            -160.00     5200.00
00308            -120.00     5000.00
00309            -120.00     4600.00
00310            -120.00     4600.00
00311            -120.00     4200.00
00312            -120.00     4000.00
00313            -160.00     3600.00
00314            -120.00     3400.00
00315            -120.00     3000.00
00316            -120.00     3000.00
00317            -120.00     2600.00
00318            -120.00     2400.00
00319             -80.00     2200.00
00320             -40.00     1800.00
00321             -80.00     1400.00
00322             -80.00     1400.00
00323            -120.00     1000.00
00324             -40.00      600.00
00325             -40.00      600.00
00326            -120.00      200.00
00327             -40.00     -200.00
00328             -80.00     -200.00
00329               0.00     -400.00
00330             120.00     -600.00
00331             160.00    -1000.00
00332             120.00    -1200.00
00333               0.00    -1400.00
00334               0.00    -1800.00
00335               0.00    -2000.00
00336             320.00    -2200.00
00337            1080.00    -2600.00
00338             960.00    -3200.00
00339            -200.00    -3000.00
00340           -1120.00    -3600.00
00341           -1080.00    -3600.00
00342            -920.00    -3800.00
00343            -680.00    -3800.00
00344             360.00    -4600.00
00345             440.00    -4800.00
00346             400.00    -4600.00
00347             360.00    -5400.00
00348            -160.00    -5200.00
00349             200.00    -5400.00
00350             160.00    -5800.00
00351               0.00    -6000.00
00352             120.00    -6600.00
00353               0.00    -6200.00
00354            -120.00    -7000.00
00355            -160.00    -7000.00
00356             120.00    -7000.00
00357             -40.00    -7600.00
00358             -40.00    -7400.00
00359             160.00    -8200.00
00360              40.00    -7800.00
00361               0.00    -8600.00
00362              40.00    -8600.00
00363             160.00    -8600.00
00364               0.00    -9200.00
00365              40.00    -9200.00
00366              40.00    -9400.00
00367             120.00    -9400.00
00368              40.00    -9800.00
00369             120.00   -10000.00
00370             120.00   -10200.00
00371              40.00   -10400.00
00372             120.00   -10600.00
00373             160.00   -10800.00
00374             160.00   -11000.00
00375             120.00   -11200.00
00376             120.00   -11200.00
00377             160.00   -11400.00
00378             160.00   -11600.00
00379             160.00   -11600.00
00380             200.00   -11800.00
00381             200.00   -11800.00
00382             200.00   -12200.00
00383             200.00   -12200.00
00384             200.00   -12400.00
00385             280.00   -12600.00
00386             320.00   -12600.00
00387             280.00   -12600.00
00388             280.00   -13000.00
00389             280.00   -13000.00
00390             320.00   -13000.00
00391             320.00   -13200.00
00392             400.00   -13400.00
00393             440.00   -13400.00
00394             400.00   -13400.00
00395             440.00   -13600.00
00396             440.00   -13800.00
00397             480.00   -13600.00
00398             520.00   -13600.00
00399             600.00   -14000.00
00400             640.00   -13800.00
00401             600.00   -13800.00
00402             640.00   -14000.00
00403             720.00   -14000.00
00404             760.00   -14000.00
00405             840.00   -14200.00
00406             920.00   -14000.00
00407             960.00   -14200.00
00408            1000.00   -14200.00
00409            1080.00   -14200.00
00410            1240.00   -14200.00
00411            1280.00   -14000.00
00412            1400.00   -14200.00
00413            1560.00   -14200.00
00414            1600.00   -14200.00
00415            1720.00   -14000.00
00416            1800.00   -14000.00
00417            1920.00   -14200.00
00418            2000.00   -14000.00
00419            2080.00   -14000.00
00420            2200.00   -13600.00
00421            2200.00   -14000.00
00422            2240.00   -13800.00
00423            2200.00   -13600.00
00424            2200.00   -13800.00
00425            2120.00   -13600.00
00426            2080.00   -13400.00
00427            1960.00   -13400.00
00428            1800.00   -13400.00
00429            1720.00   -13400.00
00430            1600.00   -13200.00
00431            1480.00   -13000.00
00432            1400.00   -13000.00
00433            1280.00   -13000.00
00434            1120.00   -12600.00
00435             960.00   -12600.00
00436             840.00   -12600.00
00437             800.00   -12400.00
00438             760.00   -12200.00
00439             680.00   -12200.00
00440             640.00   -12000.00
00441             600.00   -11800.00
00442             480.00   -11800.00
00443             480.00   -11600.00
00444             480.00   -11400.00
00445             440.00   -11400.00
00446             360.00   -11000.00
00447             320.00   -10800.00
00448             320.00   -10800.00
00449             320.00   -10600.00
00450             320.00   -10200.00
00451             280.00   -10200.00
00452             280.00   -10000.00
00453             200.00    -9800.00
00454             200.00    -9800.00
00455             240.00    -9400.00
00456             200.00    -9200.00
00457             160.00    -9000.00
00458             160.00    -9000.00
00459             160.00    -8600.00
00460             160.00    -8600.00
00461             160.00    -8200.00
00462             120.00    -8200.00
00463             120.00    -7800.00
00464             120.00    -7600.00
00465             160.00    -7400.00
00466             160.00    -7000.00
00467             120.00    -6800.00
00468             120.00    -6600.00
00469             120.00    -6600.00
00470             120.00    -6200.00
00471             120.00    -5800.00
00472             120.00    -5600.00
00473             120.00    -5400.00
00474             120.00    -5200.00
00475             120.00    -5000.00
00476             120.00    -4600.00
00477             120.00    -4400.00
00478             120.00    -4200.00
00479             120.00    -4000.00
00480              80.00    -3800.00
00481              40.00    -3400.00
00482               0.00    -3200.00
00483              40.00    -3000.00
00484              40.00    -2600.00
00485             120.00    -2600.00
00486             120.00    -2200.00
00487              40.00    -2000.00
00488              40.00    -1600.00
00489              40.00    -1400.00
00490               0.00    -1000.00
00491              40.00     -800.00
00492              80.00     -600.00
00493              80.00     -200.00
00494              80.00        0.00
00495              40.00      200.00
00496             120.00      600.00
00497             280.00      600.00
00498             280.00     1000.00
00499             280.00     1200.00
00500             160.00     1400.00
00501             120.00     1800.00
00502             200.00     2000.00
00503             760.00     2400.00
00504            1520.00     2800.00
00505             840.00     2800.00
00506            -680.00     3000.00
00507           -1400.00     3400.00
00508           -1240.00     3600.00
00509           -1000.00     4000.00
00510             440.00     4200.00
00511             760.00     4000.00
00512             440.00     4800.00
00513             440.00     4600.00
00514            -200.00     4800.00
00515             120.00     6000.00
00516              40.00     5200.00
00517               0.00     6000.00
00518             280.00     6000.00
00519             -40.00     6200.00
00520            -120.00     6800.00
00521            -200.00     6600.00
00522             120.00     7400.00
00523               0.00     7000.00
00524             -40.00     7400.00
00525              40.00     7800.00
00526             -40.00     7800.00
00527               0.00     8400.00
00528             -40.00     8200.00
00529              80.00     8600.00
00530            -120.00     8600.00
00531             -40.00     9000.00
00532            -120.00     9400.00
00533            -120.00     9200.00
00534            -120.00     9600.00
00535            -120.00     9800.00
00536               0.00    10000.00
00537            -120.00    10200.00
00538             -80.00    10400.00
00539            -160.00    10600.00
00540            -120.00    10600.00
00541            -160.00    10800.00
00542            -120.00    11000.00
00543            -160.00    11400.00
00544            -200.00    11400.00
00545            -200.00    11600.00
00546            -200.00    11800.00
00547            -120.00    12000.00
00548            -200.00    12200.00
00549            -200.00    12200.00
00550            -240.00    12200.00
00551            -280.00    12400.00
00552            -200.00    12600.00
00553            -240.00    12600.00
00554            -320.00    13000.00
00555            -320.00    12800.00
00556            -360.00    13200.00
00557            -320.00    13200.00
00558            -320.00    13200.00
00559            -320.00    13400.00
00560            -400.00    13400.00
00561            -440.00    13600.00
00562            -440.00    13600.00
00563            -520.00    13800.00
00564            -520.00    13800.00
00565            -520.00    13800.00
00566            -520.00    13800.00
00567            -640.00    14000.00
00568            -640.00    14000.00
00569            -680.00    14000.00
00570            -800.00    14000.00
00571            -800.00    14200.00
00572            -840.00    14200.00
00573            -920.00    14200.00
00574            -960.00    14000.00
00575           -1000.00    14200.00
00576           -1160.00    14200.00
00577           -1160.00    14200.00
00578           -1280.00    14200.00
00579           -1320.00    14200.00
00580           -1480.00    14200.00
00581           -1600.00    14200.00
00582           -1720.00    14200.00
00583           -1800.00    14200.00
00584           -1920.00    14000.00
00585           -1960.00    14000.00
00586           -2080.00    14000.00
00587           -2120.00    14000.00
00588           -2200.00    14000.00
00589           -2240.00    13800.00
00590           -2240.00    13800.00
00591           -2240.00    13800.00
00592           -2120.00    13600.00
00593           -2080.00    13400.00
00594           -1960.00    13600.00
00595           -1920.00    13400.00
00596           -1800.00    13400.00
00597           -1680.00    13400.00
00598           -1480.00    13200.00
00599           -1400.00    13200.00
00600           -1280.00    13000.00
00601           -1160.00    13000.00
00602           -1080.00    12600.00
00603            -960.00    12600.00
00604            -840.00    12400.00
00605            -800.00    12400.00
00606            -760.00    12200.00
00607            -640.00    12200.00
00608            -600.00    11800.00
00609            -600.00    11800.00
00610            -520.00    11800.00
00611            -480.00    11400.00
00612            -440.00    11400.00
00613            -360.00    11200.00
00614            -360.00    11000.00
00615            -360.00    10800.00
00616            -360.00    10600.00
00617            -320.00    10600.00
00618            -280.00    10200.00
00619            -280.00    10200.00
00620            -280.00     9800.00
00621            -280.00     9800.00
00622            -200.00     9800.00
00623            -240.00     9400.00
00624            -200.00     9200.00
00625            -200.00     9000.00
00626            -200.00     8600.00
00627            -200.00     8400.00
00628            -200.00     8200.00
00629            -200.00     8000.00
00630            -200.00     7800.00
00631            -200.00     7600.00
00632            -160.00     7400.00
00633            -160.00     7000.00
00634            -160.00     7000.00
00635            -160.00     6600.00
00636            -160.00     6400.00
00637            -160.00     6200.00
00638            -160.00     6000.00
00639            -120.00     5600.00
00640            -120.00     5800.00
00641            -120.00     5200.00
00642            -160.00     5000.00
00643            -160.00     4600.00
00644            -120.00     4400.00
00645            -120.00     4200.00
00646            -120.00     3800.00
00647            -120.00     3800.00
00648            -120.00     3600.00
00649            -120.00     3200.00
00650            -120.00     3000.00
00651             -80.00     2600.00
00652            -120.00     2600.00
00653            -120.00     2200.00
00654            -120.00     1800.00
00655            -120.00     1800.00
00656             -40.00     1400.00
00657            -120.00     1200.00
00658             -40.00     1000.00
00659            -120.00      600.00
00660            -120.00      400.00
00661             -80.00      200.00
00662             -40.00     -200.00
00663               0.00     -400.00
00664             120.00     -400.00
00665             160.00    -1000.00
00666             120.00    -1400.00
00667              40.00    -1400.00
00668               0.00    -1600.00
00669              40.00    -1800.00
00670             200.00    -2000.00
00671             800.00    -2400.00
00672            1120.00    -3000.00
00673             160.00    -3000.00
00674            -960.00    -3400.00
00675           -1160.00    -3600.00
00676            -920.00    -3800.00
00677            -840.00    -3800.00
00678               0.00    -4200.00
00679             520.00    -4800.00
00680             320.00    -4400.00
00681             440.00    -5400.00
00682             -40.00    -5400.00
00683              80.00    -5200.00
00684             280.00    -6000.00
00685               0.00    -5800.00
00686             120.00    -6600.00
00687              40.00    -6200.00
00688             -40.00    -6800.00
00689            -200.00    -7000.00
00690              40.00    -6800.00
00691              40.00    -7600.00
00692             -40.00    -7400.00
00693             160.00    -8000.00
00694              80.00    -8000.00
00695               0.00    -8200.00
00696               0.00    -8600.00
00697             160.00    -8600.00
00698             120.00    -9000.00
00699              40.00    -9200.00
00700              40.00    -9400.00
00701              80.00    -9400.00
00702              80.00    -9600.00
00703              40.00   -10000.00
00704             160.00   -10000.00
00705             120.00   -10600.00
00706             120.00   -10600.00
00707             160.00   -10600.00
00708             160.00   -10800.00
00709             120.00   -11000.00
00710             160.00   -11200.00
00711             160.00   -11400.00
00712             120.00   -11400.00
00713             120.00   -11800.00
00714             200.00   -11800.00
00715             200.00   -12000.00
00716             200.00   -12200.00
00717             200.00   -12200.00
00718             280.00   -12400.00
00719             200.00   -12400.00
00720             280.00   -12600.00
00721             280.00   -12800.00
00722             280.00   -12800.00
00723             280.00   -13000.00
00724             320.00   -13200.00
00725             320.00   -13200.00
00726             360.00   -13400.00
00727             440.00   -13400.00
00728             360.00   -13400.00
00729             440.00   -13600.00
00730             480.00   -13600.00
00731             440.00   -13600.00
00732             480.00   -13800.00
00733             600.00   -14000.00
00734             640.00   -13600.00
00735             640.00   -14000.00
00736             640.00   -14000.00
00737             760.00   -14000.00
00738             760.00   -14000.00
00739             800.00   -14200.00
00740             840.00   -14000.00
00741             960.00   -14200.00
00742            1000.00   -14000.00
00743            1080.00   -14200.00
00744            1160.00   -14200.00
00745            1240.00   -14200.00
00746            1400.00   -14200.00
00747            1480.00   -14200.00
00748            1600.00   -14000.00
00749            1680.00   -14200.00
00750            1800.00   -14200.00
00751            1880.00   -14000.00
00752            2000.00   -14000.00
00753            2080.00   -14000.00
00754            2120.00   -13600.00
00755            2200.00   -13800.00
00756            2200.00   -13800.00
00757            2240.00   -13600.00
00758            2200.00   -13600.00
00759            2120.00   -13600.00
00760            2080.00   -13400.00
00761            2040.00   -13400.00
00762            1920.00   -13400.00
00763            1760.00   -13200.00
00764            1600.00   -13200.00
00765            1480.00   -13200.00
00766            1400.00   -13000.00
00767            1280.00   -12600.00
00768            1120.00   -12600.00
00769            1080.00   -12800.00
00770             960.00   -12600.00
00771             840.00   -12400.00
00772             760.00   -12400.00
00773             680.00   -12200.00
00774             640.00   -12000.00
00775             600.00   -11800.00
00776             520.00   -11800.00
00777             440.00   -11600.00
00778             440.00   -11400.00
00779             440.00   -11400.00
00780             360.00   -11400.00
00781             360.00   -11000.00
00782             320.00   -10800.00
00783             280.00   -10600.00
00784             320.00   -10600.00
00785             280.00   -10200.00
00786             280.00   -10200.00
00787             240.00   -10000.00
00788             200.00    -9800.00
00789             200.00    -9800.00
00790             200.00    -9200.00
00791             200.00    -9200.00
00792             200.00    -9000.00
00793             200.00    -8600.00
00794             160.00    -8400.00
00795             160.00    -8200.00
00796             160.00    -8200.00
00797             120.00    -7800.00
00798             120.00    -7400.00
00799             120.00    -7400.00
00800             160.00    -7000.00
00801             120.00    -7000.00
00802             120.00    -6600.00
00803             120.00    -6400.00
00804             120.00    -6200.00
00805             120.00    -6000.00
00806             120.00    -5800.00
00807             120.00    -5400.00
00808             120.00    -5200.00
00809             120.00    -5000.00
00810             120.00    -4800.00
00811              80.00    -4600.00
00812             120.00    -4200.00
00813             120.00    -4000.00
00814              80.00    -3800.00
00815             120.00    -3400.00
00816              80.00    -3400.00
00817              40.00    -3000.00
00818             120.00    -2800.00
00819              80.00    -2400.00
00820             120.00    -2200.00
00821             120.00    -1800.00
00822              40.00    -1800.00
00823              80.00    -1400.00
00824              40.00    -1200.00
00825              40.00     -800.00
00826              40.00     -600.00
00827              80.00     -200.00
00828              80.00     -200.00
00829              40.00      200.00
00830             120.00      600.00
00831             200.00      800.00
00832             320.00     1000.00
00833             280.00     1200.00
00834             200.00     1400.00
00835             120.00     1600.00
00836             160.00     1800.00
00837             480.00     2200.00
00838            1400.00     2600.00
00839            1240.00     2800.00
00840            -200.00     3000.00
00841           -1320.00     3200.00
00842           -1320.00     3400.00
00843           -1120.00     4000.00
00844             -40.00     4200.00
00845             840.00     4200.00
00846             440.00     4400.00
00847             520.00     5000.00
00848            -120.00     4600.00
00849             -40.00     5800.00
00850             200.00     5400.00
00851            -160.00     5600.00
00852             280.00     6200.00
00853              40.00     5800.00
00854            -120.00     6800.00
00855            -240.00     6600.00
00856               0.00     7200.00
00857             120.00     7400.00
00858            -120.00     7000.00
00859             120.00     7800.00
00860             -40.00     7600.00
00861               0.00     8200.00
00862             -80.00     8200.00
00863               0.00     8600.00
00864             -40.00     8600.00
00865             -80.00     8800.00
00866             -40.00     9400.00
00867            -160.00     9200.00
00868             -40.00     9800.00
00869            -120.00     9600.00
00870               0.00    10000.00
00871            -120.00    10000.00
00872             -40.00    10400.00
00873            -160.00    10600.00
00874            -120.00    10600.00
00875            -160.00    10800.00
00876            -120.00    11000.00
00877            -160.00    11000.00
00878            -200.00    11400.00
00879            -160.00    11400.00
00880            -160.00    11800.00
00881            -160.00    12000.00
00882            -200.00    11800.00
00883            -200.00    12200.00
00884            -280.00    12200.00
00885            -280.00    12400.00
00886            -200.00    12600.00
00887            -200.00    12600.00
00888            -280.00    12800.00
00889            -320.00    12800.00
00890            -320.00    13000.00
00891            -320.00    13000.00
00892            -320.00    13200.00
00893            -320.00    13400.00
00894            -360.00    13400.00
00895            -440.00    13400.00
00896            -440.00    13600.00
00897            -480.00    13800.00
00898            -520.00    13800.00
00899            -520.00    13800.00
00900            -520.00    13800.00
00901            -600.00    14000.00
00902            -640.00    14000.00
00903            -680.00    14000.00
00904            -720.00    14200.00
00905            -800.00    14200.00
00906            -800.00    14200.00
00907            -840.00    14200.00
00908            -960.00    14200.00
00909           -1000.00    14200.00
00910           -1080.00    14200.00
00911           -1160.00    14200.00
00912           -1280.00    14200.00
00913           -1320.00    14200.00
00914           -1440.00    14000.00
00915           -1600.00    14200.00
00916           -1720.00    14200.00
00917           -1800.00    14200.00
00918           -1920.00    14200.00
00919           -1960.00    14000.00
00920           -2040.00    14000.00
00921           -2120.00    14000.00
00922           -2200.00    13800.00
00923           -2240.00    14000.00
00924           -2240.00    13800.00
00925           -2240.00    13800.00
00926           -2200.00    13800.00
00927           -2120.00    13600.00
00928           -2040.00    13800.00
00929           -1920.00    13400.00
00930           -1840.00    13400.00
00931           -1720.00    13200.00
00932           -1560.00    13200.00
00933           -1440.00    13200.00
00934           -1280.00    13000.00
00935           -1160.00    13000.00
00936           -1080.00    12600.00
00937            -960.00    12600.00
00938            -880.00    12400.00
00939            -800.00    12400.00
00940            -680.00    12200.00
00941            -640.00    12200.00
00942            -640.00    12000.00
00943            -600.00    11800.00
00944            -520.00    11600.00
00945            -480.00    11400.00
00946            -480.00    11400.00
00947            -440.00    11000.00
00948            -360.00    11000.00
00949            -360.00    10800.00
00950            -360.00    10600.00
00951            -320.00    10600.00
00952            -280.00    10400.00
00953            -280.00    10200.00
00954            -280.00    10000.00
00955            -280.00     9800.00
00956            -200.00     9600.00
00957            -200.00     9400.00
00958            -200.00     9200.00
00959            -200.00     9000.00
00960            -200.00     8800.00
00961            -200.00     8600.00
00962            -200.00     8400.00
00963            -200.00     8200.00
00964            -200.00     7800.00
00965            -160.00     7600.00
00966            -160.00     7400.00
00967            -160.00     7200.00
00968            -160.00     7000.00
00969            -200.00     6800.00
00970            -160.00     6600.00
00971            -160.00     6200.00
00972            -120.00     6000.00
00973            -160.00     5800.00
00974            -160.00     5800.00
00975            -160.00     5400.00
00976            -120.00     5200.00
00977            -160.00     5000.00
00978            -120.00     4400.00
00979            -120.00     4200.00
00980            -120.00     4200.00
00981            -120.00     3800.00
00982            -120.00     3400.00
00983            -160.00     3400.00
00984            -120.00     3000.00
00985            -120.00     2800.00
00986            -120.00     2600.00
00987             -80.00     2200.00
00988            -120.00     2000.00
00989            -120.00     1800.00
00990             -80.00     1400.00
00991             -80.00     1000.00
00992             -80.00      800.00
00993            -120.00      600.00
00994             -80.00      400.00
00995             -80.00      200.00
00996             -40.00     -200.00
00997             -40.00     -200.00
00998              80.00     -400.00
00999             160.00     -800.00
01000             120.00    -1000.00
01001              40.00    -1400.00
01002               0.00    -1600.00
01003               0.00    -1800.00
01004             120.00    -2000.00
01005             640.00    -2200.00
01006            1240.00    -2800.00
01007             560.00    -3000.00
01008            -640.00    -3200.00
01009           -1160.00    -3600.00
01010            -960.00    -3600.00
01011            -840.00    -3800.00
01012            -360.00    -4000.00
01013             520.00    -4600.00
01014             320.00    -4400.00
01015             480.00    -4800.00
01016             160.00    -5400.00
01017             -80.00    -5200.00
01018             320.00    -5800.00
01019              40.00    -5800.00
01020              80.00    -6400.00
01021             120.00    -6200.00
01022               0.00    -6400.00
01023            -200.00    -7200.00
01024             -40.00    -6600.00
01025             120.00    -7400.00
01026            -120.00    -7400.00
01027              80.00    -7600.00
01028             160.00    -8200.00
01029              40.00    -7800.00
01030               0.00    -8600.00
01031             120.00    -8400.00
01032             120.00    -9000.00
01033               0.00    -9200.00
01034               0.00    -9200.00
01035              40.00    -9400.00
01036              40.00    -9800.00
01037              40.00   -10000.00
01038             120.00   -10000.00
01039             120.00   -10200.00
01040              80.00   -10600.00
01041             120.00   -10600.00
01042             120.00   -10800.00
01043             120.00   -11000.00
01044             120.00   -11200.00
01045             160.00   -11400.00
01046             160.00   -11400.00
01047             160.00   -11600.00
01048             200.00   -11800.00
01049             200.00   -11800.00
01050             200.00   -12000.00
01051             200.00   -12200.00
01052             240.00   -12200.00
01053             200.00   -12400.00
01054             280.00   -12600.00
01055             280.00   -12600.00
01056             280.00   -13000.00
01057             280.00   -13000.00
01058             320.00   -13000.00
01059             360.00   -13000.00
01060             360.00   -13400.00
01061             440.00   -13200.00
01062             440.00   -13400.00
01063             440.00   -13400.00
01064             400.00   -13600.00
01065             440.00   -13600.00
01066             480.00   -13800.00
01067             520.00   -13600.00
01068             640.00   -13800.00
01069             640.00   -13800.00
01070             640.00   -14000.00
01071             680.00   -14000.00
01072             760.00   -14000.00
01073             800.00   -14200.00
01074             840.00   -14000.00
01075             960.00   -14200.00
01076             960.00   -14200.00
01077            1040.00   -14200.00
01078            1120.00   -14200.00
01079            1240.00   -14200.00
01080            1320.00   -14200.00
01081            1440.00   -14200.00
01082            1560.00   -14000.00
01083            1640.00   -14000.00
01084            1720.00   -14000.00
01085            1880.00   -14200.00
01086            1960.00   -13600.00
01087            2040.00   -14000.00
01088            2120.00   -14000.00
01089            2200.00   -14000.00
01090            2200.00   -13800.00
01091            2200.00   -13600.00
01092            2240.00   -13600.00
01093            2200.00   -13600.00
01094            2120.00   -13600.00
01095            2040.00   -13400.00
01096            1920.00   -13400.00
01097            1800.00   -13400.00
01098            1720.00   -13400.00
01099            1560.00   -13200.00
01100            1440.00   -13000.00
01101            1280.00   -12800.00
01102            1240.00   -12800.00
01103            1080.00   -12600.00
01104             960.00   -12600.00
01105             840.00   -12400.00
01106             760.00   -12400.00
01107             760.00   -12200.00
01108             640.00   -12000.00
01109             640.00   -11800.00
01110             520.00   -11800.00
01111             440.00   -11600.00
01112             440.00   -11400.00
01113             440.00   -11400.00
01114             440.00   -11200.00
01115             360.00   -11000.00
01116             320.00   -11000.00
01117             320.00   -10800.00
01118             280.00   -10600.00
01119             280.00   -10400.00
01120             280.00   -10200.00
01121             280.00   -10000.00
01122             200.00    -9800.00
01123             200.00    -9600.00
01124             200.00    -9400.00
01125             160.00    -9200.00
01126             200.00    -9200.00
01127             160.00    -8800.00
01128             160.00    -8600.00
01129             160.00    -8400.00
01130             160.00    -8000.00
01131             120.00    -8000.00
01132             120.00    -7800.00
01133             160.00    -7600.00
01134             160.00    -7200.00
01135             120.00    -7000.00
01136             120.00    -6800.00
01137             120.00    -6600.00
01138             120.00    -6200.00
01139             120.00    -6200.00
01140             120.00    -5800.00
01141             120.00    -5600.00
01142              80.00    -5400.00
01143             120.00    -5200.00
01144             120.00    -5000.00
01145              40.00    -4600.00
01146             120.00    -4400.00
01147              80.00    -4200.00
01148              80.00    -3800.00
01149             120.00    -3600.00
01150              80.00    -3200.00
01151             120.00    -3000.00
01152             120.00    -2800.00
01153             120.00    -2600.00
01154             120.00    -2200.00
01155              80.00    -2200.00
01156              80.00    -1800.00
01157              40.00    -1400.00
01158              40.00    -1200.00
01159              40.00     -800.00
01160              40.00     -800.00
01161              80.00     -400.00
01162              80.00     -200.00
01163              80.00      200.00
01164             120.00      400.00
01165             160.00      600.00
01166             280.00     1000.00
01167             280.00     1000.00
01168             200.00     1200.00
01169             160.00     1600.00
01170             120.00     1800.00
01171             320.00     2000.00
01172            1120.00     2600.00
01173            1440.00     2800.00
01174             280.00     2800.00
01175           -1120.00     3200.00
01176           -1400.00     3400.00
01177           -1240.00     3800.00
01178            -600.00     4000.00
01179             760.00     4200.00
01180             480.00     4400.00
01181             520.00     5000.00
01182             160.00     4600.00
01183            -200.00     5400.00
01184             280.00     5800.00
01185             -80.00     5000.00
01186             160.00     6200.00
01187             160.00     5800.00
01188            -120.00     6600.00
01189            -200.00     6600.00
01190            -160.00     6600.00
01191             160.00     7400.00
01192            -120.00     6800.00
01193              40.00     7800.00
01194               0.00     7600.00
01195             -40.00     8000.00
01196            -120.00     8200.00
01197             -40.00     8200.00
01198               0.00     8600.00
01199            -120.00     8600.00
01200               0.00     9200.00
01201            -160.00     9400.00
01202             -40.00     9400.00
01203            -120.00     9800.00
01204               0.00    10000.00
01205               0.00    10000.00
01206            -160.00    10200.00
01207            -120.00    10600.00
01208            -160.00    10600.00
01209            -160.00    10800.00
01210            -120.00    11000.00
01211            -120.00    11000.00
01212            -160.00    11400.00
01213            -200.00    11600.00
01214            -160.00    11600.00
01215            -160.00    11800.00
01216            -160.00    12000.00
01217            -200.00    12200.00
01218            -200.00    12200.00
01219            -280.00    12400.00
01220            -200.00    12600.00
01221            -200.00    12800.00
01222            -200.00    12800.00
01223            -320.00    13000.00
01224            -320.00    13000.00
01225            -320.00    13000.00
01226            -320.00    13200.00
01227            -320.00    13200.00
01228            -360.00    13400.00
01229            -440.00    13400.00
01230            -480.00    13600.00
01231            -480.00    13600.00
01232            -520.00    13800.00
01233            -520.00    13800.00
01234            -520.00    14000.00
01235            -560.00    14000.00
01236            -640.00    14200.00
01237            -680.00    14200.00
01238            -680.00    14000.00
01239            -800.00    14200.00
01240            -800.00    14000.00
01241            -840.00    14200.00
01242            -960.00    14000.00
01243           -1000.00    14200.00
01244           -1080.00    14200.00
01245           -1160.00    14200.00
01246           -1240.00    14200.00
01247           -1320.00    14200.00
01248           -1440.00    14000.00
01249           -1520.00    14200.00
01250           -1640.00    14200.00
01251           -1760.00    14200.00
01252           -1880.00    14000.00
01253           -1920.00    14000.00
01254           -2000.00    14000.00
01255           -2120.00    14000.00
01256           -2200.00    14000.00
01257           -2200.00    13800.00
01258           -2240.00    13800.00
01259           -2240.00    13800.00
01260           -2200.00    13800.00
01261           -2120.00    13800.00
01262           -2080.00    13800.00
01263           -1960.00    13400.00
01264           -1880.00    13400.00
01265           -1760.00    13400.00
01266           -1600.00    13200.00
01267           -1440.00    13200.00
01268           -1320.00    13000.00
01269           -1200.00    13000.00
01270           -1080.00    13000.00
01271           -1000.00    12600.00
01272            -920.00    12600.00
01273            -800.00    12400.00
01274            -760.00    12200.00
01275            -680.00    12200.00
01276            -640.00    12000.00
01277            -600.00    12000.00
01278            -520.00    12000.00
01279            -480.00    11600.00
01280            -480.00    11400.00
01281            -400.00    11400.00
01282            -360.00    11000.00
01283            -360.00    11000.00
01284            -320.00    10800.00
01285            -320.00    10600.00
01286            -280.00    10200.00
01287            -280.00    10200.00
01288            -280.00    10000.00
01289            -280.00    10000.00
01290            -200.00     9800.00
01291            -200.00     9400.00
01292            -200.00     9200.00
01293            -200.00     9200.00
01294            -200.00     8600.00
01295            -200.00     8600.00
01296            -200.00     8400.00
01297            -200.00     8200.00
01298            -200.00     8000.00
01299            -200.00     7800.00
01300            -200.00     7600.00
01301            -160.00     7200.00
01302            -200.00     7000.00
01303            -160.00     6800.00
01304            -160.00     6600.00
01305            -160.00     6400.00
01306            -160.00     6200.00
01307            -160.00     5800.00
01308            -160.00     5600.00
01309            -120.00     5400.00
01310            -160.00     5200.00
01311            -160.00     4800.00
01312            -120.00     4600.00
01313            -160.00     4400.00
01314            -120.00     4200.00
01315            -120.00     4000.00
01316            -120.00     3600.00
01317            -160.00     3400.00
01318            -120.00     3000.00
01319            -120.00     2800.00
01320            -120.00     2600.00
01321            -120.00     2200.00
01322            -120.00     2000.00
01323            -120.00     1800.00
01324             -80.00     1400.00
01325             -40.00     1200.00
01326             -80.00     1000.00
01327             -80.00      600.00
01328            -120.00      600.00
01329             -40.00      200.00
01330             -80.00      200.00
01331             -40.00     -400.00
01332              40.00     -400.00
01333             160.00     -600.00
01334             120.00    -1000.00
01335              80.00    -1200.00
01336              40.00    -1400.00
01337               0.00    -1800.00
01338               0.00    -2000.00
01339             400.00    -2000.00
01340            1080.00    -2600.00
01341             920.00    -3000.00
01342            -280.00    -3200.00
01343           -1120.00    -3400.00
01344           -1000.00    -3600.00
01345            -880.00    -3600.00
01346            -680.00    -3600.00
01347             360.00    -4600.00
01348             400.00    -4600.00
01349             440.00    -4400.00
01350             320.00    -5400.00
01351            -120.00    -5000.00
01352             280.00    -5400.00
01353             160.00    -5800.00
01354              40.00    -6000.00
01355             120.00    -6600.00
01356               0.00    -6200.00
01357            -120.00    -7000.00
01358            -120.00    -6800.00
01359             120.00    -7000.00
01360               0.00    -7800.00
01361             -40.00    -7400.00
01362             160.00    -8200.00
01363              80.00    -8000.00
01364               0.00    -8600.00
01365              40.00    -8600.00
01366             160.00    -8600.00
01367               0.00    -9200.00
01368              40.00    -9200.00
01369              40.00    -9400.00
01370              40.00    -9400.00
01371              40.00    -9800.00
01372             120.00    -9800.00
01373             120.00   -10200.00
01374              40.00   -10600.00
01375             120.00   -10600.00
01376             160.00   -10800.00
01377             120.00   -11000.00
01378             120.00   -11200.00
01379             160.00   -11000.00
01380             120.00   -11400.00
01381             120.00   -11400.00
01382             160.00   -11800.00
01383             200.00   -11800.00
01384             200.00   -12000.00
01385             200.00   -12200.00
01386             200.00   -12200.00
01387             200.00   -12400.00
01388             280.00   -12400.00
01389             320.00   -12600.00
01390             280.00   -13000.00
01391             280.00   -13000.00
01392             320.00   -13000.00
01393             320.00   -13000.00
01394             360.00   -13200.00
01395             400.00   -13400.00
01396             440.00   -13400.00
01397             360.00   -13400.00
01398             440.00   -13400.00
01399             480.00   -13600.00
01400             480.00   -13800.00
01401             560.00   -13600.00
01402             600.00   -13800.00
01403             640.00   -13800.00
01404             640.00   -14000.00
01405             640.00   -14000.00
01406             760.00   -14000.00
01407             760.00   -14200.00
01408             840.00   -14000.00
01409             920.00   -14000.00
01410            1000.00   -14200.00
01411            1000.00   -14200.00
01412            1120.00   -14000.00
01413            1240.00   -14000.00
01414            1280.00   -14000.00
01415            1400.00   -14200.00
01416            1560.00   -14200.00
01417            1600.00   -14200.00
01418            1720.00   -14200.00
01419            1840.00   -14000.00
01420            1920.00   -14000.00
01421            1960.00   -14000.00
01422            2080.00   -13800.00
01423            2200.00   -14000.00
01424            2200.00   -13800.00
01425            2200.00   -13600.00
01426            2240.00   -13800.00
01427            2200.00   -13600.00
01428            2120.00   -13600.00
01429            2040.00   -13400.00
01430            1960.00   -13400.00
01431            1880.00   -13400.00
01432            1720.00   -13400.00
01433            1560.00   -13200.00
01434            1440.00   -13200.00
01435            1320.00   -13000.00
01436            1240.00   -13000.00
01437            1120.00   -12800.00
01438            1000.00   -12600.00
01439             920.00   -12400.00
01440             800.00   -12600.00
01441             760.00   -12200.00
01442             680.00   -12200.00
01443             640.00   -12200.00
01444             560.00   -11800.00
01445             480.00   -11600.00
01446             480.00   -11400.00
01447             440.00   -11400.00
01448             400.00   -11200.00
01449             360.00   -11000.00
01450             360.00   -10800.00
01451             320.00   -10800.00
01452             280.00   -10800.00
01453             280.00   -10400.00
01454             280.00   -10200.00
01455             280.00   -10000.00
01456             280.00   -10000.00
01457             200.00    -9600.00
01458             200.00    -9400.00
01459             160.00    -9200.00
01460             200.00    -9000.00
01461             200.00    -9000.00
01462             160.00    -8400.00
01463             200.00    -8400.00
01464             160.00    -8200.00
01465             160.00    -8000.00
01466             160.00    -7600.00
01467             160.00    -7600.00
01468             120.00    -7200.00
01469             120.00    -7000.00
01470             120.00    -6800.00
01471             120.00    -6600.00
01472             120.00    -6400.00
01473             120.00    -6200.00
01474             160.00    -6000.00
01475             160.00    -5800.00
01476             120.00    -5400.00
01477             120.00    -5200.00
01478              80.00    -4800.00
01479             120.00    -4600.00
01480             120.00    -4400.00
01481             120.00    -4200.00
01482             120.00    -3800.00
01483             120.00    -3600.00
01484             120.00    -3400.00
01485              80.00    -3200.00
01486              40.00    -2800.00
01487              80.00    -2600.00
01488             120.00    -2400.00
01489             120.00    -2200.00
01490             120.00    -1800.00
01491               0.00    -1400.00
01492              80.00    -1200.00
01493              80.00     -800.00
01494             120.00     -800.00
01495              80.00     -600.00
01496              40.00     -200.00
01497              40.00      200.00
01498              80.00      400.00
01499             120.00      600.00
01500             200.00      800.00
01501             240.00     1200.00
01502             200.00     1200.00
01503             160.00     1400.00
01504             160.00     1800.00
01505             200.00     2000.00
01506             760.00     2200.00
01507            1480.00     2800.00
01508             760.00     3000.00
01509            -800.00     3200.00
01510           -1400.00     3400.00
01511           -1240.00     3600.00
01512            -960.00     4000.00
01513             440.00     4200.00
01514             680.00     4000.00
01515             400.00     5000.00
01516             400.00     4600.00
01517            -240.00     5000.00
01518             160.00     6000.00
01519               0.00     5200.00
01520             -40.00     6000.00
01521             280.00     6000.00
01522             -40.00     6200.00
01523            -120.00     6800.00
01524            -240.00     6400.00
01525             120.00     7400.00
01526             -40.00     7000.00
01527             -40.00     7400.00
01528             120.00     7800.00
01529               0.00     7800.00
01530               0.00     8200.00
01531             -40.00     8200.00
01532               0.00     8800.00
01533            -120.00     8600.00
01534               0.00     9000.00
01535            -120.00     9200.00
01536            -120.00     9400.00
01537            -120.00     9600.00
01538             -40.00     9800.00
01539               0.00    10000.00
01540            -120.00    10200.00
01541             -40.00    10200.00
01542            -160.00    10800.00
01543            -120.00    10800.00
01544            -160.00    11000.00
01545            -120.00    11000.00
01546            -160.00    11400.00
01547            -200.00    11400.00
01548            -160.00    11600.00
01549            -160.00    12000.00
01550            -160.00    12000.00
01551            -200.00    12200.00
01552            -200.00    12200.00
01553            -280.00    12400.00
01554            -280.00    12400.00
01555            -200.00    12600.00
01556            -200.00    12800.00
01557            -320.00    12800.00
01558            -320.00    13000.00
01559            -320.00    13000.00
01560            -320.00    13200.00
01561            -320.00    13200.00
01562            -320.00    13400.00
01563            -440.00    13400.00
01564            -440.00    13600.00
01565            -480.00    13600.00
01566            -520.00    13800.00
01567            -560.00    13800.00
01568            -520.00    14000.00
01569            -560.00    13800.00
01570            -640.00    13800.00
01571            -640.00    14000.00
01572            -720.00    14000.00
01573            -760.00    14200.00
01574            -840.00    14000.00
01575            -840.00    14000.00
01576            -920.00    14200.00
01577           -1000.00    14200.00
01578           -1080.00    14000.00
01579           -1120.00    14200.00
01580           -1200.00    14000.00
01581           -1280.00    14200.00
01582           -1400.00    14200.00
01583           -1480.00    14000.00
01584           -1600.00    14200.00
01585           -1720.00    14200.00
01586           -1800.00    14200.00
01587           -1960.00    14200.00
01588           -2040.00    14000.00
01589           -2120.00    13800.00
01590           -2200.00    14000.00
01591           -2160.00    13800.00
01592           -2200.00    13800.00
01593           -2240.00    14000.00
01594           -2200.00    13800.00
01595           -2120.00    13800.00
01596           -2120.00    13600.00
01597           -2040.00    13600.00
01598           -1920.00    13400.00
01599           -1800.00    13400.00
01600           -1640.00    13400.00
01601           -1480.00    13200.00
01602           -1320.00    13200.00
01603           -1240.00    13000.00
01604           -1120.00    12800.00
01605           -1040.00    12600.00
01606            -960.00    12600.00
01607            -840.00    12600.00
01608            -760.00    12400.00
01609            -680.00    12200.00
01610            -640.00    12200.00
01611            -600.00    11800.00
01612            -520.00    12000.00
01613            -520.00    11600.00
01614            -480.00    11400.00
01615            -440.00    11400.00
01616            -440.00    11200.00
01617            -360.00    11000.00
01618            -360.00    10600.00
01619            -320.00    10600.00
01620            -320.00    10600.00
01621            -320.00    10200.00
01622            -320.00    10000.00
01623            -280.00    10000.00
01624            -280.00     9600.00
01625            -240.00     9400.00
01626            -200.00     9400.00
01627            -200.00     9000.00
01628            -200.00     9000.00
01629            -200.00     8600.00
01630            -200.00     8400.00
01631            -200.00     8200.00
01632            -200.00     7800.00
01633            -200.00     7800.00
01634            -200.00     7600.00
01635            -200.00     7400.00
01636            -160.00     7000.00
01637            -200.00     6800.00
01638            -160.00     6600.00
01639            -160.00     6200.00
01640            -160.00     6200.00
01641            -120.00     6000.00
01642            -160.00     5600.00
01643            -120.00     5400.00
01644            -160.00     5200.00
01645            -160.00     5000.00
01646            -160.00     4800.00
01647            -160.00     4400.00
01648            -120.00     4200.00
01649            -120.00     3800.00
01650            -120.00     3600.00
01651            -120.00     3600.00
01652            -160.00     3200.00
01653            -160.00     3000.00
01654            -120.00     2600.00
01655             -80.00     2200.00
01656            -120.00     2200.00
01657             -40.00     1800.00
01658            -120.00     1600.00
01659            -120.00     1400.00
01660             -40.00     1000.00
01661             -40.00     1000.00
01662            -120.00      600.00
01663             -80.00      400.00
01664             -40.00      200.00
01665             -40.00     -200.00
01666               0.00     -400.00
01667             120.00     -600.00
01668             160.00    -1000.00
01669             120.00    -1200.00
01670              40.00    -1400.00
01671               0.00    -1800.00
01672               0.00    -1800.00
01673             280.00    -2000.00
01674             920.00    -2600.00
01675            1120.00    -3000.00
01676             120.00    -3000.00
01677            -960.00    -3400.00
01678           -1120.00    -3400.00
01679            -920.00    -3600.00
01680            -840.00    -3600.00
01681             120.00    -4200.00
01682             520.00    -4800.00
01683             320.00    -4400.00
01684             440.00    -5200.00
01685             -40.00    -5200.00
01686              80.00    -5200.00
01687             240.00    -5800.00
01688               0.00    -5800.00
01689             120.00    -6400.00
01690               0.00    -6200.00
01691             -40.00    -6800.00
01692            -200.00    -7000.00
01693              40.00    -7000.00
01694               0.00    -7600.00
01695            -120.00    -7400.00
01696             160.00    -8000.00
01697              40.00    -7800.00
01698               0.00    -8200.00
01699               0.00    -8600.00
01700             120.00    -8600.00
01701              80.00    -9200.00
01702               0.00    -9000.00
01703              40.00    -9400.00
01704              40.00    -9400.00
01705              40.00    -9800.00
01706              80.00   -10000.00
01707             120.00   -10000.00
01708              40.00   -10200.00
01709             120.00   -10600.00
01710             160.00   -10800.00
01711             120.00   -10800.00
01712             120.00   -11000.00
01713             120.00   -11200.00
01714             120.00   -11400.00
01715             120.00   -11400.00
01716             160.00   -11600.00
01717             200.00   -11800.00
01718             200.00   -11800.00
01719             160.00   -12200.00
01720             200.00   -12200.00
01721             200.00   -12200.00
01722             240.00   -12600.00
01723             280.00   -12600.00
01724             280.00   -12600.00
01725             280.00   -13000.00
01726             280.00   -13000.00
01727             320.00   -13000.00
01728             320.00   -13200.00
01729             360.00   -13200.00
01730             440.00   -13200.00
01731             440.00   -13400.00
01732             440.00   -13400.00
01733             480.00   -13400.00
01734             480.00   -13600.00
01735             520.00   -13800.00
01736             600.00   -13600.00
01737             640.00   -13800.00
01738             640.00   -14000.00
01739             640.00   -14000.00
01740             680.00   -14000.00
01741             760.00   -14000.00
01742             800.00   -14000.00
01743             920.00   -14200.00
01744            1000.00   -14000.00
01745            1080.00   -14000.00
01746            1120.00   -14200.00
01747            1240.00   -14200.00
01748            1280.00   -14200.00
01749            1320.00   -14200.00
01750            1400.00   -14000.00
01751            1480.00   -14200.00
01752            1600.00   -14200.00
01753            1760.00   -14000.00
01754            1920.00   -14000.00
01755            2080.00   -14000.00
01756            2200.00   -14000.00
01757            2240.00   -14000.00
01758            2240.00   -14000.00
01759            2200.00   -13600.00
01760            2120.00   -13800.00
01761            2080.00   -13600.00
01762            2080.00   -13600.00
01763            2040.00   -13600.00
01764            2040.00   -13400.00
01765            1920.00   -13400.00
01766            1800.00   -13200.00
01767            1640.00   -13200.00
01768            1520.00   -13200.00
01769            1400.00   -13000.00
01770            1240.00   -13000.00
01771            1080.00   -12800.00
01772             960.00   -12600.00
01773             840.00   -12600.00
01774             800.00   -12400.00
01775             800.00   -12200.00
01776             760.00   -12200.00
01777             680.00   -12200.00
01778             600.00   -12000.00
01779             520.00   -11800.00
01780             440.00   -11600.00
01781             360.00   -11400.00
01782             320.00   -11200.00
01783             320.00   -11000.00
01784             320.00   -11000.00
01785             320.00   -10800.00
01786             360.00   -10600.00
01787             320.00   -10600.00
01788             320.00   -10200.00
01789             280.00   -10000.00
01790             200.00    -9800.00
01791             200.00    -9800.00
01792             160.00    -9400.00
01793             160.00    -9200.00
01794             200.00    -9200.00
01795             200.00    -9000.00
01796             240.00    -8800.00
01797             200.00    -8600.00
01798             160.00    -8200.00
01799             120.00    -8200.00
01800             120.00    -8000.00
01801             120.00    -7600.00
01802             120.00    -7400.00
01803             120.00    -7000.00
01804             200.00    -6800.00
01805             160.00    -6600.00
01806             160.00    -6400.00
01807             160.00    -6200.00
01808             160.00    -6000.00
01809              80.00    -5600.00
01810             120.00    -5400.00
01811              80.00    -5200.00
01812              40.00    -5000.00
01813              80.00    -4600.00
01814              40.00    -4600.00
01815             120.00    -4200.00
01816             120.00    -4000.00
01817             120.00    -3800.00
01818             120.00    -3400.00
01819              80.00    -3000.00
01820              40.00    -3000.00
01821              80.00    -2600.00
01822              40.00    -2400.00
01823             120.00    -2200.00
01824             120.00    -1800.00
01825              40.00    -1800.00
01826             120.00    -1400.00
01827              40.00    -1000.00
01828              40.00     -800.00
01829               0.00     -600.00
01830              40.00     -400.00
01831               0.00        0.00
01832               0.00      200.00
01833              80.00      600.00
01834             200.00      600.00
01835             280.00      800.00
01836             280.00     1200.00
01837             160.00     1400.00
01838             120.00     1400.00
01839             160.00     1800.00
01840             480.00     2200.00
01841            1400.00     2600.00
01842            1120.00     2800.00
01843            -360.00     3000.00
01844           -1360.00     3200.00
01845           -1320.00     3400.00
01846           -1160.00     4000.00
01847             -40.00     4000.00
01848             800.00     4200.00
01849             400.00     4600.00
01850             480.00     4800.00
01851            -160.00     4600.00
01852               0.00     5800.00
01853             200.00     5200.00
01854             -80.00     5600.00
01855             280.00     6200.00
01856              40.00     6000.00
01857            -120.00     6800.00
01858            -240.00     6600.00
01859             -40.00     7000.00
01860              40.00     7400.00
01861            -120.00     7200.00
01862             120.00     7800.00
01863             -40.00     7800.00
01864               0.00     8200.00
01865             -40.00     8200.00
01866               0.00     8600.00
01867             -80.00     8600.00
01868             -40.00     8800.00
01869             -40.00     9200.00
01870            -160.00     9200.00
01871             -40.00     9800.00
01872            -120.00     9800.00
01873              40.00    10000.00
01874            -120.00    10000.00
01875             -40.00    10200.00
01876            -120.00    10600.00
01877            -160.00    10800.00
01878            -160.00    11000.00
01879            -120.00    11000.00
01880            -160.00    11200.00
01881            -200.00    11400.00
01882            -160.00    11600.00
01883            -160.00    11800.00
01884            -160.00    12000.00
01885            -200.00    12000.00
01886            -200.00    12200.00
01887            -200.00    12400.00
01888            -280.00    12400.00
01889            -200.00    12600.00
01890            -240.00    12800.00
01891            -280.00    12800.00
01892            -280.00    12800.00
01893            -320.00    13000.00
01894            -320.00    13000.00
01895            -360.00    13200.00
01896            -360.00    13400.00
01897            -440.00    13400.00
01898            -440.00    13400.00
01899            -480.00    13600.00
01900            -480.00    13600.00
01901            -520.00    13800.00
01902            -520.00    13800.00
01903            -600.00    14000.00
01904            -600.00    14000.00
01905            -680.00    14000.00
01906            -680.00    14000.00
01907            -760.00    14000.00
01908            -760.00    14200.00
01909            -840.00    14200.00
01910            -920.00    14200.00
01911            -960.00    14200.00
01912           -1000.00    14200.00
01913           -1120.00    14200.00
01914           -1160.00    14200.00
01915           -1280.00    14200.00
01916           -1400.00    14200.00
01917           -1480.00    14200.00
01918           -1600.00    14200.00
01919           -1720.00    14200.00
01920           -1800.00    14200.00
01921           -1880.00    14200.00
01922           -1960.00    14200.00
01923           -2080.00    14200.00
01924           -2120.00    14000.00
01925           -2200.00    14000.00
01926           -2240.00    13800.00
01927           -2240.00    13800.00
01928           -2240.00    13800.00
01929           -2200.00    13800.00
01930           -2080.00    13600.00
01931           -2040.00    13600.00
01932           -1920.00    13400.00
01933           -1800.00    13400.00
01934           -1640.00    13400.00
01935           -1480.00    13200.00
01936           -1440.00    13200.00
01937           -1280.00    13000.00
01938           -1160.00    12800.00
01939           -1080.00    12600.00
01940            -960.00    12800.00
01941            -840.00    12600.00
01942            -800.00    12400.00
01943            -720.00    12200.00
01944            -680.00    12200.00
01945            -640.00    12000.00
01946            -600.00    11800.00
01947            -520.00    11600.00
01948            -480.00    11600.00
01949            -440.00    11400.00
01950            -440.00    11200.00
01951            -440.00    11000.00
01952            -360.00    10800.00
01953            -320.00    10800.00
01954            -320.00    10600.00
01955            -280.00    10200.00
01956            -280.00    10200.00
01957            -280.00     9800.00
01958            -320.00     9800.00
01959            -280.00     9600.00
01960            -240.00     9400.00
01961            -200.00     9200.00
01962            -200.00     9000.00
01963            -200.00     8600.00
01964            -200.00     8400.00
01965            -200.00     8200.00
01966            -200.00     8200.00
01967            -160.00     7800.00
01968            -160.00     7600.00
01969            -160.00     7400.00
01970            -160.00     7200.00
01971            -160.00     7000.00
01972            -200.00     6800.00
01973            -160.00     6600.00
01974            -160.00     6200.00
01975            -160.00     6000.00
01976            -160.00     5800.00
01977            -160.00     5600.00
01978            -160.00     5400.00
01979            -120.00     5200.00
01980            -160.00     4800.00
01981            -120.00     4600.00
01982            -120.00     4400.00
01983            -120.00     4000.00
01984            -120.00     4000.00
01985            -120.00     3400.00
01986            -160.00     3400.00
01987            -120.00     3000.00
01988            -120.00     2800.00
01989            -120.00     2400.00
01990            -120.00     2200.00
01991            -120.00     1800.00
01992            -120.00     1800.00
01993             -80.00     1400.00
01994             -40.00     1200.00
01995             -40.00     1000.00
01996             -40.00      600.00
01997             -40.00      400.00
01998             -40.00      400.00
01999             -40.00     -200.00
02000               0.00     -400.00
02001             120.00     -600.00
02002             160.00     -800.00
02003             120.00    -1200.00
02004              40.00    -1400.00
02005               0.00    -1600.00
02006               0.00    -1800.00
02007             160.00    -2200.00
02008             640.00    -2200.00
02009            1240.00    -3000.00
02010             520.00    -3000.00
02011            -720.00    -3200.00
02012           -1160.00    -3600.00
02013            -960.00    -3600.00
02014            -920.00    -3600.00
02015            -280.00    -4200.00
02016             600.00    -4800.00
02017             320.00    -4400.00
02018             480.00    -5000.00
02019             120.00    -5400.00
02020             -40.00    -5000.00
02021             320.00    -5800.00
02022              40.00    -5800.00
02023              40.00    -6400.00
02024              40.00    -6200.00
02025             -40.00    -6600.00
02026            -200.00    -7000.00
02027             -40.00    -6800.00
02028             120.00    -7400.00
02029            -120.00    -7400.00
02030              80.00    -7800.00
02031             160.00    -8200.00
02032               0.00    -8000.00
02033             -40.00    -8600.00
02034             120.00    -8600.00
02035             120.00    -9000.00
02036               0.00    -9200.00
02037              40.00    -9200.00
02038              40.00    -9400.00
02039              40.00    -9600.00
02040              40.00   -10000.00
02041             120.00   -10000.00
02042             120.00   -10200.00
02043             120.00   -10600.00
02044             160.00   -10600.00
02045             120.00   -10800.00
02046             120.00   -11000.00
02047             120.00   -11400.00
02048             120.00   -11200.00
02049             120.00   -11400.00
02050             160.00   -11600.00
02051             200.00   -11800.00
02052             200.00   -11800.00
02053             200.00   -12200.00
02054             200.00   -12200.00
02055             280.00   -12200.00
02056             200.00   -12400.00
02057             280.00   -12600.00
02058             280.00   -12600.00
02059             240.00   -13000.00
02060             280.00   -12800.00
02061             320.00   -13000.00
02062             360.00   -13000.00
02063             400.00   -13200.00
02064             440.00   -13200.00
02065             440.00   -13400.00
02066             400.00   -13400.00
02067             440.00   -13600.00
02068             480.00   -13400.00
02069             480.00   -13800.00
02070             520.00   -13600.00
02071             640.00   -13800.00
02072             640.00   -13600.00
02073             640.00   -14000.00
02074             760.00   -14000.00
02075             760.00   -14000.00
02076             800.00   -14000.00
02077             840.00   -14000.00
02078             960.00   -14200.00
02079            1000.00   -14200.00
02080            1080.00   -14000.00
02081            1160.00   -14200.00
02082            1240.00   -14200.00
02083            1320.00   -14200.00
02084            1440.00   -14000.00
02085            1560.00   -14200.00
02086            1600.00   -14200.00
02087            1760.00   -14000.00
02088            1880.00   -14000.00
02089            1960.00   -13600.00
02090            2040.00   -14000.00
02091            2120.00   -14000.00
02092            2200.00   -13800.00
02093            2200.00   -13800.00
02094            2200.00   -13600.00
02095            2200.00   -13600.00
02096            2200.00   -13600.00
02097            2080.00   -13600.00
02098            2040.00   -13400.00
02099            1920.00   -13400.00
02100            1760.00   -13400.00
02101            1640.00   -13200.00
02102            1560.00   -13200.00
02103            1400.00   -13000.00
02104            1280.00   -13000.00
02105            1160.00   -13000.00
02106            1080.00   -12600.00
02107             960.00   -12600.00
02108             840.00   -12600.00
02109             800.00   -12400.00
02110             760.00   -12200.00
02111             640.00   -12000.00
02112             600.00   -12000.00
02113             520.00   -11800.00
02114             480.00   -11600.00
02115             440.00   -11600.00
02116             440.00   -11400.00
02117             440.00   -11000.00
02118             360.00   -11000.00
02119             360.00   -10800.00
02120             320.00   -10600.00
02121             280.00   -10400.00
02122             280.00   -10200.00
02123             280.00   -10000.00
02124             280.00   -10000.00
02125             280.00    -9800.00
02126             200.00    -9400.00
02127             240.00    -9400.00
02128             200.00    -9200.00
02129             200.00    -9000.00
02130             200.00    -8600.00
02131             160.00    -8400.00
02132             160.00    -8400.00
02133             160.00    -8200.00
02134             160.00    -7800.00
02135             160.00    -7600.00
02136             160.00    -7400.00
02137             160.00    -7200.00
02138             120.00    -7000.00
02139             120.00    -6600.00
02140             120.00    -6800.00
02141             120.00    -6200.00
02142             120.00    -6000.00
02143             120.00    -5600.00
02144             120.00    -5400.00
02145             120.00    -5400.00
02146             120.00    -5000.00
02147             120.00    -4800.00
02148             120.00    -4600.00
02149             120.00    -4400.00
02150             120.00    -3800.00
02151             120.00    -3800.00
02152              40.00    -3400.00
02153             120.00    -3400.00
02154              40.00    -3000.00
02155              40.00    -2800.00
02156              80.00    -2600.00
02157              80.00    -2200.00
02158              40.00    -2000.00
02159              80.00    -1800.00
02160              40.00    -1400.00
02161              40.00    -1200.00
02162              40.00     -800.00
02163              40.00     -800.00
02164              40.00     -400.00
02165              40.00     -200.00
02166              40.00      200.00
02167              80.00      200.00
02168             160.00      600.00
02169             280.00      800.00
02170             240.00     1000.00
02171             200.00     1200.00
02172             160.00     1400.00
02173             120.00     1800.00
02174             320.00     2000.00
02175            1160.00     2600.00
02176            1400.00     2800.00
02177             160.00     3000.00
02178           -1200.00     3000.00
02179           -1400.00     3400.00
02180           -1160.00     3800.00
02181            -520.00     4200.00
02182             800.00     4000.00
02183             480.00     4400.00
02184             480.00     5000.00
02185             160.00     4400.00
02186            -200.00     5400.00
02187             280.00     5800.00
02188            -120.00     5400.00
02189             160.00     6200.00
02190             160.00     5800.00
02191             -80.00     6600.00
02192            -160.00     6600.00
02193            -160.00     6800.00
02194             160.00     7600.00
02195             -80.00     7000.00
02196              80.00     7800.00
02197               0.00     7800.00
02198               0.00     8200.00
02199             -40.00     8200.00
02200               0.00     8400.00
02201               0.00     9000.00
02202            -120.00     8600.00
02203               0.00     9200.00
02204            -120.00     9400.00
02205             -40.00     9800.00
02206            -160.00     9800.00
02207             -40.00     9800.00
02208             -40.00    10200.00
02209             -40.00    10200.00
02210            -120.00    10600.00
02211            -120.00    10800.00
02212            -160.00    11000.00
02213            -160.00    11000.00
02214            -120.00    11200.00
02215            -200.00    11400.00
02216            -200.00    11400.00
02217            -200.00    11800.00
02218            -160.00    12000.00
02219            -200.00    12000.00
02220            -200.00    12200.00
02221            -200.00    12200.00
02222            -280.00    12400.00
02223            -280.00    12600.00
02224            -200.00    12600.00
02225            -320.00    13000.00
02226            -320.00    12800.00
02227            -320.00    13000.00
02228            -320.00    13000.00
02229            -360.00    13200.00
02230            -320.00    13200.00
02231            -360.00    13400.00
02232            -440.00    13400.00
02233            -480.00    13400.00
02234            -520.00    13400.00
02235            -520.00    13800.00
02236            -520.00    13800.00
02237            -520.00    13800.00
02238            -600.00    14000.00
02239            -640.00    13800.00
02240            -680.00    14000.00
02241            -760.00    14000.00
02242            -800.00    14000.00
02243            -800.00    14000.00
02244            -840.00    14200.00
02245            -960.00    14200.00
02246           -1000.00    14200.00
02247           -1080.00    14200.00
02248           -1160.00    14200.00
02249           -1240.00    14200.00
02250           -1320.00    14200.00
02251           -1440.00    14200.00
02252           -1560.00    14200.00
02253           -1640.00    14200.00
02254           -1760.00    14200.00
02255           -1880.00    14200.00
02256           -1960.00    14200.00
02257           -2040.00    14200.00
02258           -2120.00    14000.00
02259           -2200.00    14000.00
02260           -2200.00    13800.00
02261           -2240.00    14000.00
02262           -2200.00    13800.00
02263           -2200.00    13800.00
02264           -2120.00    13800.00
02265           -2040.00    13600.00
02266           -1920.00    13400.00
02267           -1800.00    13400.00
02268           -1720.00    13200.00
02269           -1600.00    13200.00
02270           -1440.00    13200.00
02271           -1320.00    13000.00
02272           -1160.00    13000.00
02273           -1120.00    12600.00
02274           -1000.00    12600.00
02275            -920.00    12600.00
02276            -800.00    12400.00
02277            -760.00    12200.00
02278            -680.00    12200.00
02279            -640.00    12000.00
02280            -600.00    11800.00
02281            -520.00    11600.00
02282            -480.00    11600.00
02283            -480.00    11400.00
02284            -440.00    11200.00
02285            -360.00    11000.00
02286            -400.00    10800.00
02287            -360.00    10600.00
02288            -360.00    10600.00
02289            -280.00    10200.00
02290            -280.00    10200.00
02291            -280.00    10000.00
02292            -280.00     9800.00
02293            -280.00     9600.00
02294            -200.00     9400.00
02295            -200.00     9400.00
02296            -200.00     9000.00
02297            -200.00     8800.00
02298            -200.00     8600.00
02299            -200.00     8400.00
02300            -200.00     8200.00
02301            -200.00     8000.00
02302            -160.00     7800.00
02303            -160.00     7400.00
02304            -160.00     7400.00
02305            -160.00     7000.00
02306            -200.00     6800.00
02307            -160.00     6600.00
02308            -160.00     6200.00
02309            -160.00     6200.00
02310            -160.00     5800.00
02311            -160.00     5800.00
02312            -160.00     5400.00
02313            -160.00     5000.00
02314            -120.00     5000.00
02315            -120.00     4600.00
02316            -120.00     4400.00
02317            -120.00     4000.00
02318            -120.00     4000.00
02319            -120.00     3600.00
02320            -120.00     3400.00
02321            -120.00     3000.00
02322            -120.00     3000.00
02323            -120.00     2600.00
02324             -80.00     2400.00
02325            -120.00     2000.00
02326             -40.00     1800.00
02327            -120.00     1400.00
02328             -40.00     1400.00
02329             -40.00     1000.00
02330             -40.00      800.00
02331             -40.00      400.00
02332            -120.00      400.00
02333            -120.00     -200.00
02334             -40.00     -200.00
02335              40.00     -400.00
02336             160.00     -800.00
02337             160.00    -1000.00
02338              80.00    -1400.00
02339              40.00    -1400.00
02340               0.00    -1800.00
02341             120.00    -2000.00
02342             440.00    -2200.00
02343            1160.00    -2600.00
02344             840.00    -3000.00
02345            -360.00    -3000.00
02346           -1120.00    -3400.00
02347           -1000.00    -3600.00
02348            -920.00    -3800.00
02349            -640.00    -3800.00
02350             440.00    -4400.00
02351             360.00    -4600.00
02352             440.00    -4400.00
02353             320.00    -5600.00
02354            -120.00    -5000.00
02355             240.00    -5600.00
02356             120.00    -6000.00
02357               0.00    -6000.00
02358              80.00    -6600.00
02359             -40.00    -6200.00
02360            -160.00    -7000.00
02361            -120.00    -6800.00
02362             120.00    -7200.00
02363             -40.00    -7600.00
02364             -40.00    -7400.00
02365             160.00    -8200.00
02366              40.00    -7800.00
02367               0.00    -8600.00
02368              40.00    -8600.00
02369             160.00    -8600.00
02370              40.00    -9000.00
02371               0.00    -9200.00
02372              40.00    -9400.00
02373              40.00    -9400.00
02374             120.00   -10000.00
02375             160.00   -10000.00
02376             120.00   -10200.00
02377              40.00   -10400.00
02378             120.00   -10600.00
02379             120.00   -10800.00
02380             160.00   -11000.00
02381             120.00   -11000.00
02382             160.00   -11200.00
02383             120.00   -11400.00
02384             120.00   -11600.00
02385             200.00   -11800.00
02386             200.00   -11800.00
02387             160.00   -11800.00
02388             200.00   -12200.00
02389             200.00   -12200.00
02390             280.00   -12200.00
02391             280.00   -12600.00
02392             320.00   -12600.00
02393             320.00   -12800.00
02394             280.00   -13000.00
02395             280.00   -13000.00
02396             320.00   -13000.00
02397             360.00   -13200.00
02398             440.00   -13200.00
02399             440.00   -13400.00
02400             440.00   -13400.00
02401             440.00   -13400.00
02402             480.00   -13600.00
02403             520.00   -13800.00
02404             520.00   -13800.00
02405             600.00   -13800.00
02406             640.00   -13800.00
02407             640.00   -14000.00
02408             680.00   -14000.00
02409             760.00   -14000.00
02410             800.00   -14200.00
02411             840.00   -14000.00
02412             920.00   -14000.00
02413             960.00   -14200.00
02414            1000.00   -14200.00
02415            1120.00   -14200.00
02416            1160.00   -14200.00
02417            1280.00   -14000.00
02418            1400.00   -14200.00
02419            1520.00   -14200.00
02420            1640.00   -14000.00
02421            1720.00   -14200.00
02422            1880.00   -14200.00
02423            1920.00   -14000.00
02424            2000.00   -13600.00
02425            2080.00   -14000.00
02426            2200.00   -14000.00
02427            2200.00   -13600.00
02428            2240.00   -13800.00
02429            2240.00   -13600.00
02430            2200.00   -13600.00
02431            2120.00   -13400.00
02432            2040.00   -13400.00
02433            1960.00   -13400.00
02434            1800.00   -13400.00
02435            1720.00   -13400.00
02436            1560.00   -13200.00
02437            1440.00   -13000.00
02438            1320.00   -13000.00
02439            1160.00   -13000.00
02440            1080.00   -12600.00
02441            1000.00   -12600.00
02442             920.00   -12600.00
02443             800.00   -12400.00
02444             760.00   -12200.00
02445             680.00   -12200.00
02446             640.00   -12000.00
02447             520.00   -11800.00
02448             480.00   -11800.00
02449             480.00   -11600.00
02450             440.00   -11400.00
02451             440.00   -11400.00
02452             400.00   -11000.00
02453             320.00   -11000.00
02454             320.00   -10800.00
02455             320.00   -10600.00
02456             320.00   -10600.00
02457             280.00   -10200.00
02458             280.00   -10000.00
02459             240.00    -9800.00
02460             200.00    -9600.00
02461             200.00    -9400.00
02462             200.00    -9200.00
02463             200.00    -9200.00
02464             200.00    -8800.00
02465             160.00    -8600.00
02466             160.00    -8400.00
02467             160.00    -8200.00
02468             160.00    -8000.00
02469             160.00    -7800.00
02470             160.00    -7600.00
02471             160.00    -7200.00
02472             160.00    -7000.00
02473             120.00    -6800.00
02474             120.00    -6600.00
02475             160.00    -6400.00
02476             120.00    -6200.00
02477             120.00    -6000.00
02478             120.00    -5600.00
02479             120.00    -5400.00
02480             120.00    -5000.00
02481             120.00    -4800.00
02482             120.00    -4800.00
02483              80.00    -4400.00
02484             120.00    -4200.00
02485              40.00    -3800.00
02486              40.00    -3600.00
02487              40.00    -3400.00
02488             120.00    -3200.00
02489              40.00    -2800.00
02490              40.00    -2600.00
02491              80.00    -2200.00
02492              80.00    -2200.00
02493             120.00    -1800.00
02494              40.00    -1400.00
02495               0.00    -1400.00
02496              40.00     -800.00
02497              40.00     -600.00
02498              40.00     -400.00
02499              40.00     -200.00
02500              40.00        0.00
02501             120.00      400.00
02502             120.00      600.00
02503             280.00     1000.00
02504             280.00     1000.00
02505             280.00     1400.00
02506             160.00     1400.00
02507             160.00     1800.00
02508             200.00     2000.00
02509             840.00     2600.00
02510            1480.00     2800.00
02511             640.00     2800.00
02512            -840.00     3000.00
02513           -1440.00     3400.00
02514           -1240.00     3800.00
02515            -920.00     4000.00
02516             560.00     4000.00
02517             640.00     4200.00
02518             480.00     4800.00
02519             360.00     4600.00
02520            -240.00     5200.00
02521             200.00     6000.00
02522               0.00     5200.00
02523               0.00     6000.00
02524             280.00     6000.00
02525             -40.00     6400.00
02526            -120.00     6800.00
02527            -200.00     6400.00
02528             120.00     7400.00
02529             -40.00     7000.00
02530             -40.00     7600.00
02531             120.00     7800.00
02532             -40.00     7800.00
02533               0.00     8200.00
02534               0.00     8200.00
02535              80.00     9000.00
02536            -120.00     8600.00
02537               0.00     9200.00
02538            -120.00     9400.00
02539            -120.00     9400.00
02540            -120.00     9800.00
02541             -40.00     9800.00
02542               0.00    10200.00
02543            -120.00    10200.00
02544            -120.00    10200.00
02545            -160.00    10600.00
02546            -120.00    10800.00
02547            -120.00    10800.00
02548            -120.00    11200.00
02549            -200.00    11200.00
02550            -200.00    11400.00
02551            -200.00    11600.00
02552            -200.00    12000.00
02553            -200.00    11800.00
02554            -160.00    12000.00
02555            -200.00    12200.00
02556            -280.00    12200.00
02557            -280.00    12400.00
02558            -200.00    12600.00
02559            -240.00    12600.00
02560            -320.00    12800.00
02561            -320.00    13000.00
02562            -360.00    13200.00
02563            -320.00    13000.00
02564            -320.00    13400.00
02565            -360.00    13200.00
02566            -440.00    13400.00
02567            -480.00    13400.00
02568            -520.00    13800.00
02569            -480.00    13800.00
02570            -520.00    13800.00
02571            -520.00    13800.00
02572            -560.00    14000.00
02573            -640.00    13800.00
02574            -680.00    14000.00
02575            -680.00    14000.00
02576            -760.00    14000.00
02577            -800.00    14000.00
02578            -840.00    14000.00
02579            -920.00    14200.00
02580           -1000.00    14200.00
02581           -1080.00    14200.00
02582           -1120.00    14200.00
02583           -1240.00    14200.00
02584           -1280.00    14200.00
02585           -1400.00    14200.00
02586           -1480.00    14200.00
02587           -1600.00    14200.00
02588           -1720.00    14200.00
02589           -1800.00    14200.00
02590           -1960.00    14000.00
02591           -2000.00    14000.00
02592           -2080.00    14000.00
02593           -2120.00    14000.00
02594           -2200.00    14000.00
02595           -2240.00    13800.00
02596           -2240.00    13800.00
02597           -2200.00    13800.00
02598           -2120.00    13800.00
02599           -2040.00    13600.00
02600           -1960.00    13400.00
02601           -1880.00    13600.00
02602           -1760.00    13400.00
02603           -1600.00    13200.00
02604           -1480.00    13200.00
02605           -1320.00    13000.00
02606           -1240.00    13000.00
02607           -1160.00    12800.00
02608           -1040.00    12800.00
02609            -960.00    12600.00
02610            -840.00    12400.00
02611            -800.00    12200.00
02612            -680.00    12200.00
02613            -640.00    12200.00
02614            -640.00    11800.00
02615            -560.00    11600.00
02616            -520.00    11600.00
02617            -520.00    11400.00
02618            -480.00    11400.00
02619            -360.00    11200.00
02620            -400.00    11000.00
02621            -360.00    10800.00
02622            -320.00    10600.00
02623            -320.00    10600.00
02624            -280.00    10200.00
02625            -280.00    10200.00
02626            -280.00    10000.00
02627            -280.00     9800.00
02628            -280.00     9400.00
02629            -280.00     9400.00
02630            -200.00     9200.00
02631            -200.00     9000.00
02632            -200.00     8600.00
02633            -200.00     8600.00
02634            -200.00     8200.00
02635            -200.00     8200.00
02636            -200.00     7800.00
02637            -160.00     7600.00
02638            -200.00     7400.00
02639            -160.00     7200.00
02640            -160.00     6800.00
02641            -200.00     6600.00
02642            -160.00     6600.00
02643            -160.00     6200.00
02644            -160.00     6000.00
02645            -120.00     5800.00
02646            -160.00     5600.00
02647            -120.00     5200.00
02648            -120.00     5000.00
02649            -120.00     4800.00
02650            -120.00     4600.00
02651            -120.00     4200.00
02652            -120.00     3800.00
02653            -120.00     3800.00
02654            -120.00     3400.00
02655            -120.00     3000.00
02656            -120.00     3000.00
02657             -40.00     2800.00
02658             -80.00     2400.00
02659             -80.00     2200.00
02660            -120.00     1800.00
02661            -120.00     1800.00
02662             -40.00     1400.00
02663            -120.00     1200.00
02664             -40.00      800.00
02665             -80.00      600.00
02666             -40.00      200.00
02667             -40.00        0.00
02668             -40.00     -200.00
02669               0.00     -600.00
02670             120.00     -600.00
02671             160.00     -800.00
02672             120.00    -1200.00
02673              40.00    -1400.00
02674               0.00    -1800.00
02675              40.00    -1800.00
02676             200.00    -2200.00
02677             960.00    -2600.00
02678            1120.00    -3000.00
02679              40.00    -3000.00
02680           -1000.00    -3400.00
02681           -1160.00    -3600.00
02682            -920.00    -3600.00
02683            -800.00    -3600.00
02684             120.00    -4400.00
02685             520.00    -4800.00
02686             320.00    -4400.00
02687             440.00    -5400.00
02688             -80.00    -5200.00
02689             120.00    -5400.00
02690             240.00    -6000.00
02691               0.00    -5800.00
02692             120.00    -6600.00
02693               0.00    -6200.00
02694            -120.00    -6800.00
02695            -200.00    -7000.00
02696              80.00    -7000.00
02697              40.00    -7600.00
02698             -40.00    -7600.00
02699             120.00    -8200.00
02700             120.00    -8000.00
02701               0.00    -8400.00
02702               0.00    -8600.00
02703             160.00    -8600.00
02704              40.00    -9000.00
02705              40.00    -9200.00
02706              40.00    -9400.00
02707              40.00    -9600.00
02708              40.00    -9800.00
02709              80.00   -10000.00
02710             120.00   -10000.00
02711              40.00   -10600.00
02712             120.00   -10600.00
02713             160.00   -10800.00
02714             160.00   -10800.00
02715             120.00   -11000.00
02716             160.00   -11200.00
02717             160.00   -11400.00
02718             120.00   -11600.00
02719             160.00   -11800.00
02720             200.00   -11800.00
02721             200.00   -11800.00
02722             160.00   -12200.00
02723             200.00   -12200.00
02724             200.00   -12400.00
02725             280.00   -12600.00
02726             280.00   -12600.00
02727             320.00   -12800.00
02728             280.00   -12800.00
02729             280.00   -12800.00
02730             360.00   -13000.00
02731             360.00   -13200.00
02732             400.00   -13400.00
02733             440.00   -13400.00
02734             440.00   -13400.00
02735             440.00   -13400.00
02736             440.00   -13800.00
02737             480.00   -13400.00
02738             520.00   -13800.00
02739             520.00   -13600.00
02740             600.00   -13800.00
02741             640.00   -14000.00
02742             640.00   -14000.00
02743             680.00   -14000.00
02744             760.00   -14000.00
02745             800.00   -14200.00
02746             920.00   -14000.00
02747             960.00   -14200.00
02748            1000.00   -14200.00
02749            1080.00   -14200.00
02750            1160.00   -14200.00
02751            1240.00   -14200.00
02752            1320.00   -14200.00
02753            1520.00   -14000.00
02754            1600.00   -14200.00
02755            1680.00   -14200.00
02756            1760.00   -14000.00
02757            1920.00   -14000.00
02758            2000.00   -14000.00
02759            2080.00   -14000.00
02760            2160.00   -14000.00
02761            2200.00   -14000.00
02762            2240.00   -13800.00
02763            2240.00   -13600.00
02764            2200.00   -13800.00
02765            2160.00   -13600.00
02766            2080.00   -13600.00
02767            2040.00   -13400.00
02768            1880.00   -13400.00
02769            1720.00   -13200.00
02770            1600.00   -13200.00
02771            1480.00   -13200.00
02772            1400.00   -13000.00
02773            1280.00   -13000.00
02774            1160.00   -12800.00
02775            1000.00   -12800.00
02776             920.00   -12600.00
02777             800.00   -12400.00
02778             760.00   -12400.00
02779             680.00   -12200.00
02780             640.00   -12000.00
02781             600.00   -12200.00
02782             480.00   -11800.00
02783             480.00   -11600.00
02784             440.00   -11400.00
02785             440.00   -11400.00
02786             440.00   -11000.00
02787             360.00   -11000.00
02788             320.00   -10800.00
02789             280.00   -10600.00
02790             320.00   -10600.00
02791             280.00   -10200.00
02792             280.00   -10200.00
02793             280.00    -9800.00
02794             200.00    -9800.00
02795             200.00    -9400.00
02796             200.00    -9200.00
02797             200.00    -9200.00
02798             200.00    -9000.00
02799             160.00    -8600.00
02800             200.00    -8400.00
02801             160.00    -8400.00
02802             160.00    -8200.00
02803             160.00    -7800.00
02804             160.00    -7600.00
02805             160.00    -7200.00
02806             120.00    -7000.00
02807             160.00    -6800.00
02808             120.00    -6600.00
02809             120.00    -6600.00
02810             120.00    -6200.00
02811             120.00    -6000.00
02812             120.00    -5800.00
02813             120.00    -5400.00
02814              80.00    -5200.00
02815              80.00    -5000.00
02816             120.00    -4600.00
02817             120.00    -4600.00
02818              80.00    -4400.00
02819             120.00    -4000.00
02820              40.00    -3800.00
02821              40.00    -3400.00
02822              40.00    -3200.00
02823              40.00    -3000.00
02824             120.00    -2600.00
02825              80.00    -2600.00
02826              80.00    -2000.00
02827              40.00    -2000.00
02828              40.00    -1600.00
02829              40.00    -1400.00
02830              40.00     -800.00
02831              40.00     -800.00
02832              40.00     -400.00
02833              80.00     -400.00
02834              80.00        0.00
02835             120.00      200.00
02836             120.00      600.00
02837             240.00      600.00
02838             280.00     1000.00
02839             240.00     1200.00
02840             200.00     1400.00
02841             120.00     1800.00
02842             160.00     2000.00
02843             560.00     2200.00
02844            1440.00     2600.00
02845            1080.00     2800.00
02846            -440.00     3000.00
02847           -1360.00     3200.00
02848           -1280.00     3600.00
02849           -1120.00     3800.00
02850              80.00     4200.00
02851             840.00     4200.00
02852             440.00     4600.00
02853             480.00     5000.00
02854            -160.00     4600.00
02855               0.00     5800.00
02856             160.00     5400.00
02857             -40.00     5800.00
02858             320.00     6200.00
02859               0.00     6000.00
02860             -40.00     6600.00
02861            -240.00     6600.00
02862              40.00     7200.00
02863              40.00     7200.00
02864            -120.00     7200.00
02865             120.00     8000.00
02866             -40.00     7800.00
02867               0.00     8200.00
02868            -120.00     8000.00
02869              40.00     8600.00
02870             -40.00     8600.00
02871             -80.00     8800.00
02872             -40.00     9200.00
02873            -160.00     9400.00
02874            -120.00     9800.00
02875            -120.00     9800.00
02876               0.00    10000.00
02877            -120.00    10200.00
02878             -40.00    10400.00
02879            -160.00    10600.00
02880            -120.00    10800.00
02881            -160.00    11000.00
02882            -120.00    11000.00
02883            -160.00    11400.00
02884            -200.00    11400.00
02885            -200.00    11600.00
02886            -160.00    11600.00
02887            -160.00    12000.00
02888            -200.00    12000.00
02889            -200.00    12200.00
02890            -320.00    12200.00
02891            -280.00    12400.00
02892            -280.00    12600.00
02893            -240.00    12600.00
02894            -320.00    12800.00
02895            -320.00    12800.00
02896            -360.00    13200.00
02897            -320.00    13000.00
02898            -320.00    13200.00
02899            -320.00    13400.00
02900            -400.00    13200.00
02901            -480.00    13600.00
02902            -480.00    13400.00
02903            -520.00    13800.00
02904            -520.00    13800.00
02905            -520.00    14000.00
02906            -520.00    13800.00
02907            -600.00    13800.00
02908            -640.00    14000.00
02909            -680.00    14000.00
02910            -760.00    14000.00
02911            -760.00    14000.00
02912            -840.00    14200.00
02913            -880.00    14200.00
02914            -960.00    14200.00
02915           -1040.00    14200.00
02916           -1120.00    14200.00
02917           -1160.00    14400.00
02918           -1280.00    14200.00
02919           -1320.00    14200.00
02920           -1440.00    14200.00
02921           -1600.00    14200.00
02922           -1720.00    14200.00
02923           -1800.00    14200.00
02924           -1920.00    14200.00
02925           -1960.00    14000.00
02926           -2040.00    14000.00
02927           -2120.00    13800.00
02928           -2200.00    14000.00
02929           -2240.00    14000.00
02930           -2240.00    14000.00
02931           -2200.00    13800.00
02932           -2120.00    13800.00
02933           -2080.00    13600.00
02934           -2000.00    13600.00
02935           -1920.00    13400.00
02936           -1800.00    13400.00
02937           -1680.00    13200.00
02938           -1560.00    13200.00
02939           -1400.00    13200.00
02940           -1280.00    13000.00
02941           -1160.00    13000.00
02942           -1080.00    12600.00
02943            -960.00    12600.00
02944            -880.00    12600.00
02945            -800.00    12400.00
02946            -760.00    12400.00
02947            -640.00    12200.00
02948            -640.00    11800.00
02949            -600.00    11800.00
02950            -520.00    11600.00
02951            -480.00    11400.00
02952            -440.00    11400.00
02953            -400.00    11000.00
02954            -400.00    11000.00
02955            -360.00    10800.00
02956            -360.00    10600.00
02957            -320.00    10600.00
02958            -280.00    10200.00
02959            -320.00    10200.00
02960            -280.00    10000.00
02961            -280.00     9800.00
02962            -280.00     9400.00
02963            -280.00     9400.00
02964            -280.00     9200.00
02965            -200.00     9000.00
02966            -200.00     8800.00
02967            -200.00     8600.00
02968            -200.00     8400.00
02969            -200.00     8200.00
02970            -200.00     7800.00
02971            -160.00     7800.00
02972            -160.00     7600.00
02973            -160.00     7400.00
02974            -120.00     7000.00
02975            -160.00     6600.00
02976            -160.00     6600.00
02977            -120.00     6200.00
02978            -160.00     6000.00
02979            -120.00     5800.00
02980            -160.00     5600.00
02981            -120.00     5400.00
02982            -160.00     5000.00
02983            -160.00     5000.00
02984            -120.00     4600.00
02985            -120.00     4200.00
02986             -80.00     3800.00
02987            -120.00     3800.00
02988            -120.00     3600.00
02989            -160.00     3400.00
02990            -120.00     3200.00
02991             -80.00     2800.00
02992            -120.00     2600.00
02993             -40.00     2200.00
02994            -120.00     2000.00
02995             -40.00     1800.00
02996             -40.00     1400.00
02997             -80.00     1200.00
02998             -80.00     1000.00
02999             -40.00      800.00
03000             -40.00      200.00
03001            -120.00      200.00
03002             -80.00        0.00
03003               0.00     -400.00
03004             120.00     -400.00
03005             160.00     -800.00
03006             160.00    -1000.00
03007              40.00    -1400.00
03008               0.00    -1600.00
03009               0.00    -1800.00
03010             120.00    -2000.00
03011             640.00    -2200.00
03012            1240.00    -3000.00
03013             440.00    -3000.00
03014            -760.00    -3400.00
03015           -1120.00    -3600.00
03016            -960.00    -3600.00
03017            -880.00    -3800.00
03018            -200.00    -4200.00
03019             560.00    -4600.00
03020             360.00    -4400.00
03021             480.00    -5000.00
03022              80.00    -5400.00
03023               0.00    -5200.00
03024             280.00    -5800.00
03025               0.00    -5800.00
03026             120.00    -6400.00
03027              40.00    -6200.00
03028             -40.00    -6600.00
03029            -200.00    -7200.00
03030               0.00    -6800.00
03031             120.00    -7400.00
03032            -120.00    -7600.00
03033              80.00    -7800.00
03034             120.00    -8200.00
03035               0.00    -8200.00
03036               0.00    -8800.00
03037             120.00    -8600.00
03038             120.00    -9000.00
03039               0.00    -9000.00
03040              40.00    -9400.00
03041              40.00    -9400.00
03042             120.00    -9800.00
03043             120.00   -10000.00
03044             120.00   -10000.00
03045             120.00   -10200.00
03046             120.00   -10600.00
03047             120.00   -10600.00
03048             160.00   -10600.00
03049             160.00   -11000.00
03050             120.00   -11200.00
03051             160.00   -11200.00
03052             160.00   -11600.00
03053             160.00   -11600.00
03054             200.00   -11800.00
03055             200.00   -12000.00
03056             200.00   -12000.00
03057             240.00   -12200.00
03058             200.00   -12200.00
03059             240.00   -12400.00
03060             280.00   -12600.00
03061             280.00   -12600.00
03062             280.00   -12600.00
03063             280.00   -13000.00
03064             320.00   -13000.00
03065             320.00   -13000.00
03066             360.00   -13200.00
03067             400.00   -13400.00
03068             440.00   -13400.00
03069             440.00   -13600.00
03070             440.00   -13400.00
03071             480.00   -13800.00
03072             520.00   -13800.00
03073             520.00   -13800.00
03074             600.00   -14000.00
03075             640.00   -14000.00
03076             640.00   -14000.00
03077             680.00   -14000.00
03078             760.00   -13800.00
03079             800.00   -14000.00
03080             920.00   -14200.00
03081             960.00   -14200.00
03082            1000.00   -14200.00
03083            1040.00   -14200.00
03084            1120.00   -14200.00
03085            1240.00   -14200.00
03086            1280.00   -14200.00
03087            1440.00   -14200.00
03088            1600.00   -14200.00
03089            1640.00   -14200.00
03090            1760.00   -14200.00
03091            1880.00   -14000.00
03092            1960.00   -14000.00
03093            2040.00   -13800.00
03094            2120.00   -14000.00
03095            2120.00   -14000.00
03096            2200.00   -13600.00
03097            2200.00   -13600.00
03098            2200.00   -13600.00
03099            2120.00   -13600.00
03100            2120.00   -13400.00
03101            2040.00   -13600.00
03102            1920.00   -13400.00
03103            1800.00   -13400.00
03104            1640.00   -13200.00
03105            1560.00   -13000.00
03106            1400.00   -13000.00
03107            1280.00   -13000.00
03108            1160.00   -12800.00
03109            1080.00   -12600.00
03110             960.00   -12600.00
03111             840.00   -12600.00
03112             800.00   -12400.00
03113             760.00   -12200.00
03114             640.00   -12000.00
03115             600.00   -11800.00
03116             520.00   -11800.00
03117             480.00   -11600.00
03118             440.00   -11600.00
03119             440.00   -11200.00
03120             440.00   -11000.00
03121             360.00   -11000.00
03122             320.00   -11000.00
03123             320.00   -10600.00
03124             280.00   -10600.00
03125             280.00   -10400.00
03126             280.00   -10200.00
03127             280.00    -9800.00
03128             240.00    -9800.00
03129             200.00    -9600.00
03130             200.00    -9200.00
03131             160.00    -9200.00
03132             160.00    -9000.00
03133             160.00    -8800.00
03134             160.00    -8600.00
03135             160.00    -8200.00
03136             120.00    -8200.00
03137             160.00    -7800.00
03138             160.00    -7600.00
03139             160.00    -7200.00
03140             160.00    -7200.00
03141             120.00    -7000.00
03142             120.00    -6800.00
03143             120.00    -6600.00
03144             160.00    -6200.00
03145             120.00    -6200.00
03146             120.00    -5800.00
03147             120.00    -5800.00
03148             120.00    -5200.00
03149              80.00    -5200.00
03150              80.00    -4800.00
03151              80.00    -4600.00
03152             120.00    -4200.00
03153             120.00    -4200.00
03154              40.00    -3800.00
03155             120.00    -3600.00
03156              40.00    -3400.00
03157             120.00    -3000.00
03158             120.00    -2800.00
03159              80.00    -2600.00
03160              40.00    -2200.00
03161              40.00    -2000.00
03162              80.00    -1800.00
03163              40.00    -1400.00
03164              40.00    -1200.00
03165              40.00     -800.00
03166              40.00     -600.00
03167              80.00     -400.00
03168              40.00        0.00
03169              40.00      200.00
03170             120.00      400.00
03171             160.00      600.00
03172             280.00      800.00
03173             280.00     1200.00
03174             200.00     1200.00
03175             160.00     1400.00
03176             120.00     1800.00
03177             360.00     2200.00
03178            1240.00     2600.00
03179            1400.00     2800.00
03180             120.00     3000.00
03181           -1240.00     3000.00
03182           -1320.00     3400.00
03183           -1160.00     3800.00
03184            -440.00     4200.00
03185             840.00     4200.00
03186             480.00     4400.00
03187             520.00     5000.00
03188             120.00     4600.00
03189            -160.00     5800.00
03190             280.00     5600.00
03191            -120.00     5200.00
03192             200.00     6200.00
03193             120.00     6000.00
03194             -80.00     6800.00
03195            -200.00     6600.00
03196            -160.00     6800.00
03197             120.00     7400.00
03198            -120.00     6800.00
03199             120.00     7800.00
03200               0.00     7800.00
03201               0.00     8200.00
03202             -40.00     8200.00
03203               0.00     8400.00
03204               0.00     9000.00
03205            -120.00     8600.00
03206               0.00     9200.00
03207            -120.00     9400.00
03208             -40.00     9600.00
03209            -160.00     9600.00
03210               0.00    10000.00
03211             -40.00    10200.00
03212            -120.00    10200.00
03213            -120.00    10600.00
03214            -160.00    10600.00
03215            -120.00    10800.00
03216            -160.00    11000.00
03217            -160.00    11400.00
03218            -200.00    11400.00
03219            -200.00    11600.00
03220            -160.00    11800.00
03221            -160.00    12000.00
03222            -160.00    12000.00
03223            -200.00    12200.00
03224            -280.00    12400.00
03225            -240.00    12400.00
03226            -200.00    12600.00
03227            -200.00    12600.00
03228            -280.00    12800.00
03229            -320.00    13000.00
03230            -320.00    13000.00
03231            -320.00    13200.00
03232            -320.00    13200.00
03233            -320.00    13400.00
03234            -360.00    13400.00
03235            -480.00    13400.00
03236            -440.00    13600.00
03237            -480.00    13800.00
03238            -520.00    13800.00
03239            -520.00    13800.00
03240            -520.00    14000.00
03241            -520.00    13800.00
03242            -640.00    14000.00
03243            -680.00    14000.00
03244            -680.00    14200.00
03245            -800.00    14000.00
03246            -800.00    14200.00
03247            -840.00    14200.00
03248            -960.00    14200.00
03249           -1000.00    14200.00
03250           -1080.00    14200.00
03251           -1160.00    14200.00
03252           -1240.00    14200.00
03253           -1320.00    14200.00
03254           -1440.00    14400.00
03255           -1480.00    14200.00
03256           -1640.00    14200.00
03257           -1760.00    14000.00
03258           -1920.00    14200.00
03259           -1960.00    14000.00
03260           -2040.00    14000.00
03261           -2120.00    13800.00
03262           -2200.00    14000.00
03263           -2240.00    14000.00
03264           -2240.00    13800.00
03265           -2240.00    13800.00
03266           -2200.00    13800.00
03267           -2120.00    13600.00
03268           -2080.00    13600.00
03269           -1960.00    13400.00
03270           -1840.00    13400.00
03271           -1720.00    13400.00
03272           -1600.00    13400.00
03273           -1440.00    13000.00
03274           -1320.00    13200.00
03275           -1240.00    13000.00
03276           -1120.00    12800.00
03277           -1000.00    12600.00
03278            -920.00    12600.00
03279            -840.00    12400.00
03280            -760.00    12200.00
03281            -680.00    12200.00
03282            -640.00    12000.00
03283            -600.00    11800.00
03284            -520.00    11800.00
03285            -480.00    11400.00
03286            -480.00    11400.00
03287            -400.00    11400.00
03288            -400.00    11000.00
03289            -360.00    10800.00
03290            -360.00    10600.00
03291            -320.00    10600.00
03292            -280.00    10400.00
03293            -320.00    10200.00
03294            -280.00    10000.00
03295            -280.00     9800.00
03296            -280.00     9600.00
03297            -200.00     9400.00
03298            -200.00     9200.00
03299            -200.00     9000.00
03300            -200.00     8600.00
03301            -200.00     8600.00
03302            -200.00     8400.00
03303            -200.00     8200.00
03304            -200.00     8000.00
03305            -160.00     7800.00
03306            -160.00     7400.00
03307            -160.00     7400.00
03308            -160.00     7000.00
03309            -160.00     6800.00
03310            -160.00     6600.00
03311            -160.00     6200.00
03312            -160.00     6000.00
03313            -160.00     5800.00
03314            -160.00     5600.00
03315            -160.00     5400.00
03316            -160.00     5200.00
03317            -120.00     5000.00
03318            -120.00     4600.00
03319            -120.00     4400.00
03320            -120.00     4000.00
03321             -80.00     3800.00
03322            -120.00     3600.00
03323            -120.00     3400.00
03324            -160.00     3200.00
03325            -120.00     3000.00
03326            -120.00     2600.00
03327            -120.00     2200.00
03328            -120.00     1800.00
03329             -40.00     1800.00
03330            -120.00     1400.00
03331             -80.00     1200.00
03332            -120.00     1000.00
03333             -40.00      600.00
03334             -80.00      400.00
03335            -120.00      200.00
03336             -40.00        0.00
03337             -40.00     -400.00
03338               0.00     -400.00
03339             160.00     -600.00
03340             160.00    -1000.00
03341              40.00    -1200.00
03342               0.00    -1400.00
03343               0.00    -1800.00
03344              40.00    -2000.00
03345             440.00    -2200.00
03346            1160.00    -2600.00
03347             800.00    -3000.00
03348            -440.00    -3400.00
03349           -1160.00    -3600.00
03350           -1080.00    -3600.00
03351            -920.00    -3800.00
03352            -680.00    -4000.00
03353             360.00    -4600.00
03354             280.00    -4400.00
03355             480.00    -4400.00
03356             360.00    -5400.00
03357              40.00    -5000.00
03358             440.00    -5800.00
03359             200.00    -5800.00
03360               0.00    -6200.00
03361             -40.00    -6400.00
03362            -200.00    -6200.00
03363            -280.00    -7200.00
03364            -120.00    -6800.00
03365             200.00    -7200.00
03366               0.00    -7400.00
03367             120.00    -7600.00
03368             280.00    -8200.00
03369             120.00    -8000.00
03370               0.00    -8600.00
03371              40.00    -8600.00
03372              40.00    -8800.00
03373             -80.00    -9000.00
03374             -40.00    -9200.00
03375              40.00    -9400.00
03376             120.00    -9400.00
03377             160.00   -10000.00
03378             200.00    -9800.00
03379             200.00   -10200.00
03380             120.00   -10600.00
03381              40.00   -10600.00
03382              40.00   -10800.00
03383              40.00   -11000.00
03384              40.00   -11400.00
03385             120.00   -11000.00
03386             160.00   -11400.00
03387             200.00   -11600.00
03388             320.00   -11800.00
03389             280.00   -11800.00
03390             200.00   -12000.00
03391             160.00   -12200.00
03392             120.00   -12200.00
03393             120.00   -12400.00
03394             160.00   -12600.00
03395             240.00   -12600.00
03396             320.00   -12600.00
03397             320.00   -12800.00
03398             400.00   -13200.00
03399             360.00   -13000.00
03400             360.00   -13200.00
03401             360.00   -13400.00
03402             320.00   -13400.00
03403             360.00   -13400.00
03404             440.00   -13400.00
03405             480.00   -13600.00
03406             600.00   -13600.00
03407             600.00   -13800.00
03408             640.00   -13800.00
03409             600.00   -13800.00
03410             600.00   -14000.00
03411             640.00   -14000.00
03412             680.00   -14000.00
03413             760.00   -14000.00
03414             840.00   -14000.00
03415             960.00   -14200.00
03416            1000.00   -14200.00
03417            1080.00   -14200.00
03418            1160.00   -14200.00
03419            1240.00   -14200.00
03420            1320.00   -14200.00
03421            1400.00   -14200.00
03422            1480.00   -14200.00
03423            1600.00   -14000.00
03424            1720.00   -14200.00
03425            1880.00   -14200.00
03426            1960.00   -14200.00
03427            2040.00   -14000.00
03428            2120.00   -14000.00
03429            2200.00   -14000.00
03430            2200.00   -14000.00
03431            2200.00   -13600.00
03432            2200.00   -13600.00
03433            2200.00   -13600.00
03434            2120.00   -13600.00
03435            2080.00   -13400.00
03436            2000.00   -13400.00
03437            1840.00   -13400.00
03438            1720.00   -13200.00
03439            1560.00   -13200.00
03440            1440.00   -13200.00
03441            1280.00   -13000.00
03442            1200.00   -13000.00
03443            1080.00   -12600.00
03444             960.00   -12800.00
03445             920.00   -12400.00
03446             800.00   -12400.00
03447             760.00   -12200.00
03448             640.00   -12200.00
03449             600.00   -12000.00
03450             520.00   -11800.00
03451             480.00   -11600.00
03452             480.00   -11600.00
03453             480.00   -11400.00
03454             440.00   -11400.00
03455             400.00   -11000.00
03456             320.00   -11000.00
03457             320.00   -10800.00
03458             280.00   -10600.00
03459             200.00   -10600.00
03460             280.00   -10200.00
03461             280.00   -10200.00
03462             280.00    -9800.00
03463             240.00    -9800.00
03464             240.00    -9400.00
03465             200.00    -9400.00
03466             160.00    -9200.00
03467             160.00    -8800.00
03468             160.00    -8600.00
03469             120.00    -8400.00
03470             120.00    -8200.00
03471             160.00    -8200.00
03472             120.00    -7800.00
03473             120.00    -7600.00
03474             160.00    -7200.00
03475             120.00    -7000.00
03476             120.00    -6800.00
03477             120.00    -6600.00
03478             120.00    -6600.00
03479             120.00    -6200.00
03480              40.00    -5800.00
03481             120.00    -5600.00
03482             120.00    -5400.00
03483             120.00    -5000.00
03484             120.00    -5000.00
03485             120.00    -4600.00
03486             120.00    -4400.00
03487             120.00    -4200.00
03488             120.00    -3800.00
03489              40.00    -3600.00
03490               0.00    -3400.00
03491             120.00    -3000.00
03492             120.00    -2800.00
03493              80.00    -2600.00
03494             120.00    -2400.00
03495              40.00    -2000.00
03496              40.00    -1800.00
03497              40.00    -1600.00
03498              40.00    -1200.00
03499              40.00     -800.00
03500              40.00     -600.00
03501             120.00     -600.00
03502             120.00     -200.00
03503             120.00      200.00
03504             120.00      200.00
03505             120.00      600.00
03506             240.00      800.00
03507             200.00     1000.00
03508             200.00     1200.00
03509             160.00     1400.00
03510             120.00     1600.00
03511             280.00     2000.00
03512             880.00     2400.00
03513            1560.00     2800.00
03514             600.00     3000.00
03515            -880.00     3000.00
03516           -1400.00     3400.00
03517           -1240.00     3800.00
03518            -840.00     4000.00
03519             640.00     4200.00
03520             600.00     4200.00
03521             440.00     5000.00
03522             320.00     4600.00
03523            -280.00     5000.00
03524             200.00     5800.00
03525             -40.00     5200.00
03526              40.00     6000.00
03527             200.00     6000.00
03528             -80.00     6400.00
03529            -120.00     6800.00
03530            -200.00     6600.00
03531             120.00     7400.00
03532             -40.00     7000.00
03533               0.00     7600.00
03534              40.00     7800.00
03535             -40.00     7800.00
03536             -40.00     8400.00
03537             -40.00     8200.00
03538              40.00     8800.00
03539            -120.00     8600.00
03540               0.00     9000.00
03541            -160.00     9400.00
03542            -120.00     9400.00
03543            -160.00     9800.00
03544             -40.00     9800.00
03545             -40.00    10200.00
03546            -120.00    10200.00
03547            -120.00    10400.00
03548            -160.00    10800.00
03549            -160.00    10600.00
03550            -160.00    11000.00
03551            -120.00    11200.00
03552            -200.00    11200.00
03553            -200.00    11600.00
03554            -200.00    11600.00
03555            -160.00    11800.00
03556            -160.00    12000.00
03557            -200.00    12000.00
03558            -200.00    12200.00
03559            -280.00    12400.00
03560            -200.00    12600.00
03561            -200.00    12600.00
03562            -280.00    12800.00
03563            -280.00    13000.00
03564            -320.00    13000.00
03565            -320.00    13200.00
03566            -320.00    13000.00
03567            -320.00    13400.00
03568            -360.00    13400.00
03569            -440.00    13200.00
03570            -440.00    13400.00
03571            -480.00    13600.00
03572            -520.00    13800.00
03573            -520.00    13800.00
03574            -480.00    13800.00
03575            -520.00    13800.00
03576            -600.00    14000.00
03577            -680.00    14000.00
03578            -680.00    14000.00
03579            -800.00    14200.00
03580            -840.00    14200.00
03581            -840.00    14200.00
03582            -920.00    14200.00
03583           -1000.00    14200.00
03584           -1040.00    14200.00
03585           -1120.00    14200.00
03586           -1240.00    14200.00
03587           -1280.00    14200.00
03588           -1400.00    14200.00
03589           -1520.00    14200.00
03590           -1640.00    14200.00
03591           -1760.00    14000.00
03592           -1840.00    14200.00
03593           -1960.00    14000.00
03594           -2040.00    14000.00
03595           -2120.00    14000.00
03596           -2200.00    14000.00
03597           -2240.00    13800.00
03598           -2240.00    13800.00
03599           -2280.00    13800.00
03600           -2240.00    13800.00
03601           -2160.00    13800.00
03602           -2080.00    13600.00
03603           -1960.00    13600.00
03604           -1920.00    13400.00
03605           -1760.00    13400.00
03606           -1600.00    13200.00
03607           -1480.00    13200.00
03608           -1320.00    13000.00
03609           -1280.00    13000.00
03610           -1160.00    13000.00
03611           -1080.00    12600.00
03612            -920.00    12600.00
03613            -840.00    12400.00
03614            -800.00    12400.00
03615            -680.00    12200.00
03616            -640.00    12000.00
03617            -560.00    11800.00
03618            -520.00    11600.00
03619            -520.00    11600.00
03620            -440.00    11600.00
03621            -360.00    11200.00
03622            -440.00    11000.00
03623            -360.00    11000.00
03624            -320.00    10800.00
03625            -320.00    10600.00
03626            -320.00    10600.00
03627            -280.00    10200.00
03628            -280.00    10200.00
03629            -280.00     9800.00
03630            -280.00     9600.00
03631            -280.00     9400.00
03632            -200.00     9200.00
03633            -200.00     9000.00
03634            -200.00     9000.00
03635            -200.00     8600.00
03636            -200.00     8400.00
03637            -200.00     8400.00
03638            -160.00     8000.00
03639            -160.00     7800.00
03640            -160.00     7600.00
03641            -160.00     7400.00
03642            -160.00     7000.00
03643            -160.00     6800.00
03644            -200.00     6600.00
03645            -160.00     6600.00
03646            -160.00     6200.00
03647            -120.00     6000.00
03648            -160.00     5800.00
03649            -160.00     5400.00
03650            -160.00     5200.00
03651            -160.00     5000.00
03652            -120.00     4600.00
03653            -160.00     4400.00
03654            -120.00     4200.00
03655            -120.00     3800.00
03656            -120.00     3800.00
03657            -160.00     3400.00
03658            -160.00     3200.00
03659            -120.00     2800.00
03660            -120.00     2600.00
03661            -120.00     2200.00
03662            -120.00     2000.00
03663            -120.00     1800.00
03664            -120.00     1600.00
03665            -120.00     1400.00
03666            -120.00     1000.00
03667             -80.00      600.00
03668            -120.00      400.00
03669             -40.00      400.00
03670            -120.00        0.00
03671             -40.00     -200.00
03672               0.00     -600.00
03673             120.00     -600.00
03674             120.00    -1000.00
03675             120.00    -1200.00
03676               0.00    -1400.00
03677               0.00    -1800.00
03678              40.00    -2000.00
03679             280.00    -2000.00
03680            1000.00    -2600.00
03681            1080.00    -3000.00
03682             -40.00    -3200.00
03683           -1000.00    -3400.00
03684           -1080.00    -3600.00
03685            -880.00    -3600.00
03686            -800.00    -3800.00
03687             200.00    -4400.00
03688             480.00    -4800.00
03689             360.00    -4400.00
03690             440.00    -5400.00
03691             -80.00    -5200.00
03692             160.00    -5200.00
03693             200.00    -6000.00
03694               0.00    -5800.00
03695             120.00    -6600.00
03696              40.00    -6200.00
03697             -80.00    -6800.00
03698            -160.00    -7000.00
03699             120.00    -7000.00
03700               0.00    -7600.00
03701             -40.00    -7400.00
03702             160.00    -8000.00
03703             120.00    -7800.00
03704               0.00    -8400.00
03705              40.00    -8600.00
03706             160.00    -8600.00
03707              40.00    -9200.00
03708               0.00    -9200.00
03709              40.00    -9400.00
03710             120.00    -9400.00
03711              40.00    -9800.00
03712             120.00   -10000.00
03713             160.00   -10200.00
03714             120.00   -10400.00
03715             120.00   -10600.00
03716             160.00   -10600.00
03717             160.00   -11000.00
03718              40.00   -11200.00
03719             160.00   -11400.00
03720             120.00   -11400.00
03721             120.00   -11600.00
03722             160.00   -11600.00
03723             200.00   -11800.00
03724             200.00   -12200.00
03725             200.00   -12200.00
03726             200.00   -12200.00
03727             200.00   -12400.00
03728             200.00   -12600.00
03729             280.00   -12600.00
03730             280.00   -12600.00
03731             280.00   -13000.00
03732             280.00   -13000.00
03733             320.00   -13000.00
03734             320.00   -13400.00
03735             360.00   -13400.00
03736             440.00   -13400.00
03737             440.00   -13400.00
03738             440.00   -13400.00
03739             440.00   -13600.00
03740             480.00   -13600.00
03741             480.00   -13800.00
03742             560.00   -13800.00
03743             640.00   -14000.00
03744             640.00   -14000.00
03745             640.00   -14000.00
03746             760.00   -14000.00
03747             800.00   -14000.00
03748             800.00   -14000.00
03749             920.00   -14000.00
03750             960.00   -14200.00
03751            1000.00   -14200.00
03752            1080.00   -14200.00
03753            1160.00   -14200.00
03754            1280.00   -14200.00
03755            1400.00   -14200.00
03756            1480.00   -14200.00
03757            1600.00   -14200.00
03758            1720.00   -14000.00
03759            1800.00   -14200.00
03760            1920.00   -14000.00
03761            2040.00   -14000.00
03762            2080.00   -14000.00
03763            2200.00   -14000.00
03764            2200.00   -13800.00
03765            2240.00   -13600.00
03766            2240.00   -13600.00
03767            2200.00   -13800.00
03768            2200.00   -13600.00
03769            2080.00   -13400.00
03770            1960.00   -13400.00
03771            1840.00   -13400.00
03772            1720.00   -13200.00
03773            1600.00   -13200.00
03774            1480.00   -13200.00
03775            1320.00   -13000.00
03776            1280.00   -13000.00
03777            1120.00   -12800.00
03778            1040.00   -12800.00
03779             920.00   -12600.00
03780             840.00   -12400.00
03781             760.00   -12400.00
03782             640.00   -12200.00
03783             600.00   -12200.00
03784             600.00   -12000.00
03785             480.00   -11800.00
03786             440.00   -11600.00
03787             440.00   -11400.00
03788             400.00   -11200.00
03789             360.00   -11000.00
03790             320.00   -11000.00
03791             320.00   -10800.00
03792             280.00   -10600.00
03793             280.00   -10600.00
03794             280.00   -10200.00
03795             280.00   -10000.00
03796             280.00    -9800.00
03797             200.00    -9800.00
03798             200.00    -9400.00
03799             200.00    -9200.00
03800             200.00    -9200.00
03801             160.00    -9000.00
03802             160.00    -8600.00
03803             160.00    -8600.00
03804             160.00    -8200.00
03805             120.00    -8200.00
03806             120.00    -7800.00
03807             160.00    -7600.00
03808             160.00    -7400.00
03809             160.00    -7200.00
03810             160.00    -7000.00
03811             120.00    -6600.00
03812             120.00    -6600.00
03813             120.00    -6200.00
03814             120.00    -6000.00
03815             160.00    -5800.00
03816             120.00    -5400.00
03817             120.00    -5200.00
03818              80.00    -5000.00
03819              80.00    -4600.00
03820             120.00    -4600.00
03821             120.00    -4200.00
03822              80.00    -4200.00
03823             120.00    -3600.00
03824             120.00    -3400.00
03825              80.00    -3000.00
03826              80.00    -3000.00
03827             120.00    -2800.00
03828             120.00    -2400.00
03829              40.00    -2000.00
03830             120.00    -1800.00
03831              80.00    -1600.00
03832              40.00    -1400.00
03833              40.00    -1000.00
03834              40.00     -800.00
03835             120.00     -600.00
03836              40.00     -400.00
03837              80.00        0.00
03838             120.00      200.00
03839             120.00      600.00
03840             200.00      600.00
03841             280.00     1000.00
03842             280.00     1200.00
03843             160.00     1400.00
03844             160.00     1600.00
03845             200.00     2000.00
03846             640.00     2200.00
03847            1480.00     2600.00
03848            1000.00     3000.00
03849            -520.00     3000.00
03850           -1440.00     3000.00
03851           -1280.00     3600.00
03852           -1120.00     3800.00
03853             200.00     4200.00
03854             800.00     4200.00
03855             440.00     4600.00
03856             480.00     5000.00
03857            -200.00     4600.00
03858               0.00     6000.00
03859             120.00     5200.00
03860             -80.00     5800.00
03861             280.00     6200.00
03862               0.00     6000.00
03863             -40.00     7000.00
03864            -280.00     6600.00
03865               0.00     7200.00
03866              40.00     7200.00
03867             -40.00     7400.00
03868             120.00     7800.00
03869             -40.00     7800.00
03870               0.00     8200.00
03871            -120.00     8200.00
03872              40.00     8600.00
03873            -120.00     8600.00
03874             -40.00     9000.00
03875             -40.00     9400.00
03876            -120.00     9400.00
03877            -120.00     9800.00
03878            -120.00     9800.00
03879              40.00    10200.00
03880            -120.00    10200.00
03881             -80.00    10600.00
03882            -160.00    10600.00
03883            -160.00    10800.00
03884            -160.00    11000.00
03885            -120.00    11200.00
03886            -160.00    11400.00
03887            -200.00    11400.00
03888            -160.00    11600.00
03889            -200.00    11800.00
03890            -160.00    12000.00
03891            -200.00    12200.00
03892            -200.00    12200.00
03893            -240.00    12200.00
03894            -280.00    12400.00
03895            -240.00    12600.00
03896            -200.00    12800.00
03897            -320.00    12800.00
03898            -320.00    13000.00
03899            -320.00    13200.00
03900            -320.00    13200.00
03901            -320.00    13200.00
03902            -320.00    13400.00
03903            -360.00    13400.00
03904            -480.00    13400.00
03905            -480.00    13600.00
03906            -520.00    13800.00
03907            -520.00    13800.00
03908            -520.00    13800.00
03909            -520.00    13800.00
03910            -600.00    14000.00
03911            -640.00    14000.00
03912            -680.00    14200.00
03913            -760.00    14000.00
03914            -800.00    14000.00
03915            -840.00    14000.00
03916            -920.00    14200.00
03917           -1000.00    14200.00
03918           -1080.00    14200.00
03919           -1080.00    14200.00
03920           -1160.00    14200.00
03921           -1280.00    14200.00
03922           -1400.00    14200.00
03923           -1480.00    14200.00
03924           -1600.00    14200.00
03925           -1720.00    14200.00
03926           -1800.00    14200.00
03927           -1960.00    14200.00
03928           -1960.00    14200.00
03929           -2080.00    14200.00
03930           -2200.00    14000.00
03931           -2200.00    14000.00
03932           -2240.00    14000.00
03933           -2240.00    13800.00
03934           -2200.00    13800.00
03935           -2120.00    13800.00
03936           -2120.00    13800.00
03937           -2040.00    13400.00
03938           -1920.00    13400.00
03939           -1800.00    13400.00
03940           -1640.00    13200.00
03941           -1480.00    13200.00
03942           -1400.00    13000.00
03943           -1280.00    13200.00
03944           -1160.00    13000.00
03945           -1080.00    13000.00
03946            -960.00    12600.00
03947            -920.00    12600.00
03948            -800.00    12400.00
03949            -760.00    12200.00
03950            -680.00    12200.00
03951            -600.00    12000.00
03952            -600.00    11800.00
03953            -520.00    11600.00
03954            -480.00    11400.00
03955            -440.00    11200.00
03956            -360.00    11200.00
03957            -440.00    11000.00
03958            -360.00    10800.00
03959            -320.00    10600.00
03960            -320.00    10600.00
03961            -280.00    10400.00
03962            -240.00    10000.00
03963            -280.00    10000.00
03964            -320.00     9800.00
03965            -280.00     9400.00
03966            -200.00     9400.00
03967            -200.00     9200.00
03968            -200.00     9000.00
03969            -160.00     8600.00
03970            -200.00     8600.00
03971            -200.00     8400.00
03972            -200.00     8000.00
03973            -200.00     7800.00
03974            -160.00     7600.00
03975            -160.00     7400.00
03976            -160.00     7200.00
03977            -160.00     6800.00
03978            -200.00     6800.00
03979            -160.00     6600.00
03980            -160.00     6200.00
03981            -120.00     6000.00
03982            -160.00     5800.00
03983            -160.00     5400.00
03984            -160.00     5200.00
03985            -160.00     5000.00
03986            -160.00     4800.00
03987            -120.00     4400.00
03988            -120.00     4200.00
03989            -120.00     4000.00
03990            -120.00     3800.00
03991            -160.00     3400.00
03992            -160.00     3400.00
03993            -120.00     3000.00
03994            -120.00     2600.00
03995            -120.00     2400.00
03996            -120.00     2200.00
03997            -120.00     2000.00
03998            -120.00     1600.00
03999            -120.00     1400.00
04000            -120.00     1200.00
04001             -80.00     1000.00
04002            -120.00      600.00
04003            -120.00      400.00
04004            -120.00      200.00
04005             -40.00     -200.00
04006               0.00     -400.00
04007             120.00     -600.00
04008             120.00     -800.00
04009             120.00    -1000.00
04010              40.00    -1200.00
04011               0.00    -1800.00
04012               0.00    -1800.00
04013             160.00    -2000.00
04014             760.00    -2400.00
04015            1160.00    -3000.00
04016             360.00    -3000.00
04017            -800.00    -3400.00
04018           -1160.00    -3600.00
04019            -960.00    -3600.00
04020            -880.00    -3800.00
04021            -160.00    -4200.00
04022             600.00    -4800.00
04023             320.00    -4400.00
04024             480.00    -5000.00
04025              40.00    -5400.00
04026               0.00    -5200.00
04027             280.00    -5800.00
04028               0.00    -5800.00
04029             120.00    -6600.00
04030              40.00    -6200.00
04031             -40.00    -6600.00
04032            -200.00    -7200.00
04033              40.00    -6800.00
04034             120.00    -7400.00
04035            -120.00    -7400.00
04036             120.00    -7800.00
04037             160.00    -8000.00
04038               0.00    -8200.00
04039               0.00    -8600.00
04040             160.00    -8600.00
04041             120.00    -9000.00
04042               0.00    -9000.00
04043              40.00    -9400.00
04044              40.00    -9400.00
04045              40.00    -9800.00
04046              40.00   -10000.00
04047             160.00   -10000.00
04048              40.00   -10400.00
04049              80.00   -10600.00
04050             120.00   -10800.00
04051             160.00   -10800.00
04052             120.00   -11000.00
04053             120.00   -11200.00
04054             160.00   -11400.00
04055             120.00   -11400.00
04056             160.00   -11800.00
04057             160.00   -11800.00
04058             200.00   -11800.00
04059             160.00   -12200.00
04060             200.00   -12200.00
04061             200.00   -12400.00
04062             200.00   -12400.00
04063             280.00   -12600.00
04064             280.00   -12600.00
04065             280.00   -12600.00
04066             280.00   -13000.00
04067             320.00   -13200.00
04068             320.00   -13200.00
04069             360.00   -13400.00
04070             400.00   -13400.00
04071             440.00   -13400.00
04072             400.00   -13800.00
04073             440.00   -13600.00
04074             480.00   -13600.00
04075             480.00   -13800.00
04076             560.00   -13600.00
04077             640.00   -14000.00
04078             640.00   -13800.00
04079             640.00   -14000.00
04080             720.00   -14000.00
04081             800.00   -14000.00
04082             800.00   -14000.00
04083             840.00   -14200.00
04084             960.00   -14200.00
04085            1000.00   -14200.00
04086            1080.00   -14200.00
04087            1160.00   -14200.00
04088            1280.00   -14200.00
04089            1320.00   -14200.00
04090            1440.00   -14200.00
04091            1600.00   -14200.00
04092            1640.00   -14000.00
04093            1760.00   -14200.00
04094            1880.00   -14000.00
04095            2000.00   -14000.00
04096            2040.00   -14000.00
04097            2120.00   -14000.00
04098            2200.00   -13600.00
04099            2240.00   -14000.00
04100            2240.00   -13800.00
04101            2240.00   -13600.00
04102            2200.00   -13600.00
04103            2080.00   -13600.00
04104            2040.00   -13600.00
04105            1920.00   -13400.00
04106            1760.00   -13400.00
04107            1640.00   -13400.00
04108            1520.00   -13000.00
04109            1400.00   -13000.00
04110            1280.00   -13000.00
04111            1160.00   -13000.00
04112            1000.00   -12800.00
04113             960.00   -12600.00
04114             840.00   -12400.00
04115             760.00   -12400.00
04116             680.00   -12200.00
04117             640.00   -12200.00
04118             600.00   -12000.00
04119             520.00   -11800.00
04120             480.00   -11600.00
04121             440.00   -11400.00
04122             440.00   -11400.00
04123             400.00   -11400.00
04124             360.00   -11000.00
04125             320.00   -10800.00
04126             280.00   -10600.00
04127             240.00   -10600.00
04128             280.00   -10600.00
04129             280.00   -10000.00
04130             280.00   -10000.00
04131             280.00    -9800.00
04132             200.00    -9600.00
04133             160.00    -9400.00
04134             160.00    -9200.00
04135             160.00    -9000.00
04136             160.00    -8800.00
04137             160.00    -8600.00
04138             160.00    -8400.00
04139             160.00    -8200.00
04140             160.00    -8000.00
04141             160.00    -7600.00
04142             120.00    -7400.00
04143             120.00    -7000.00
04144             120.00    -7000.00
04145             120.00    -6800.00
04146             120.00    -6400.00
04147             120.00    -6200.00
04148             160.00    -6000.00
04149              80.00    -5800.00
04150              80.00    -5600.00
04151             120.00    -5400.00
04152             120.00    -5000.00
04153              80.00    -4800.00
04154             120.00    -4600.00
04155             120.00    -4200.00
04156             120.00    -4000.00
04157             120.00    -3800.00
04158             120.00    -3400.00
04159              80.00    -3400.00
04160              40.00    -3000.00
04161             120.00    -2800.00
04162             120.00    -2600.00
04163              80.00    -2200.00
04164              80.00    -2000.00
04165              40.00    -1800.00
04166              40.00    -1400.00
04167              40.00    -1400.00
04168             120.00     -800.00
04169             120.00     -600.00
04170              40.00     -400.00
04171              40.00     -200.00
04172              40.00      200.00
04173              80.00      400.00
04174             160.00      600.00
04175             280.00     1000.00
04176             240.00     1200.00
04177             160.00     1400.00
04178             160.00     1600.00
04179             120.00     1800.00
04180             360.00     2200.00
04181            1240.00     2600.00
04182            1320.00     2800.00
04183             -40.00     3000.00
04184           -1280.00     3200.00
04185           -1360.00     3400.00
04186           -1240.00     3800.00
04187            -320.00     4200.00
04188             840.00     4000.00
04189             440.00     4400.00
04190             480.00     5000.00
04191              40.00     4400.00
04192            -160.00     5800.00
04193             280.00     5600.00
04194            -160.00     5400.00
04195             200.00     6200.00
04196             120.00     5800.00
04197             -40.00     6800.00
04198            -200.00     6600.00
04199            -120.00     7000.00
04200             160.00     7400.00
04201            -120.00     7000.00
04202             120.00     8000.00
04203               0.00     7600.00
04204               0.00     8200.00
04205             -40.00     8200.00
04206               0.00     8400.00
04207               0.00     8800.00
04208            -120.00     8600.00
04209               0.00     9200.00
04210            -120.00     9200.00
04211             -40.00     9800.00
04212            -160.00     9800.00
04213               0.00    10000.00
04214             -40.00    10200.00
04215             -40.00    10200.00
04216            -120.00    10600.00
04217            -160.00    10600.00
04218            -120.00    10800.00
04219            -160.00    11000.00
04220            -120.00    11400.00
04221            -200.00    11200.00
04222            -200.00    11600.00
04223            -160.00    11600.00
04224            -160.00    12000.00
04225            -200.00    12000.00
04226            -200.00    12200.00
04227            -280.00    12200.00
04228            -280.00    12400.00
04229            -200.00    12600.00
04230            -280.00    12600.00
04231            -280.00    13000.00
04232            -320.00    12800.00
04233            -320.00    13200.00
04234            -320.00    13200.00
04235            -320.00    13200.00
04236            -320.00    13400.00
04237            -360.00    13400.00
04238            -440.00    13400.00
04239            -480.00    13600.00
04240            -480.00    13800.00
04241            -520.00    13800.00
04242            -520.00    13800.00
04243            -520.00    13800.00
04244            -600.00    13800.00
04245            -640.00    13800.00
04246            -680.00    14000.00
04247            -760.00    14000.00
04248            -760.00    14000.00
04249            -840.00    14200.00
04250            -880.00    14200.00
04251            -960.00    14200.00
04252           -1000.00    14200.00
04253           -1080.00    14200.00
04254           -1160.00    14200.00
04255           -1280.00    14200.00
04256           -1320.00    14200.00
04257           -1440.00    14200.00
04258           -1560.00    14200.00
04259           -1720.00    14200.00
04260           -1800.00    14200.00
04261           -1880.00    14200.00
04262           -1960.00    14200.00
04263           -2080.00    14000.00
04264           -2120.00    14000.00
04265           -2240.00    14000.00
04266           -2240.00    13800.00
04267           -2240.00    13800.00
04268           -2240.00    13800.00
04269           -2200.00    13800.00
04270           -2080.00    13800.00
04271           -2040.00    13600.00
04272           -1960.00    13600.00
04273           -1880.00    13400.00
04274           -1760.00    13200.00
04275           -1560.00    13400.00
04276           -1400.00    13200.00
04277           -1280.00    13000.00
04278           -1160.00    13000.00
04279           -1120.00    13000.00
04280            -960.00    12600.00
04281            -840.00    12800.00
04282            -800.00    12600.00
04283            -760.00    12200.00
04284            -720.00    12200.00
04285            -640.00    12200.00
04286            -560.00    12000.00
04287            -520.00    11800.00
04288            -480.00    11400.00
04289            -440.00    11600.00
04290            -440.00    11200.00
04291            -360.00    11000.00
04292            -360.00    11000.00
04293            -320.00    10800.00
04294            -320.00    10600.00
04295            -320.00    10400.00
04296            -280.00    10200.00
04297            -280.00    10000.00
04298            -200.00     9800.00
04299            -280.00     9600.00
04300            -280.00     9400.00
04301            -200.00     9200.00
04302            -280.00     9000.00
04303            -200.00     8600.00
04304            -200.00     8600.00
04305            -200.00     8400.00
04306            -200.00     8200.00
04307            -200.00     8000.00
04308            -160.00     7600.00
04309            -200.00     7400.00
04310            -160.00     7200.00
04311            -200.00     7000.00
04312            -200.00     6800.00
04313            -160.00     6600.00
04314            -160.00     6200.00
04315            -120.00     6000.00
04316            -160.00     5800.00
04317            -160.00     5600.00
04318            -160.00     5400.00
04319            -160.00     5200.00
04320            -160.00     5000.00
04321            -120.00     4600.00
04322            -160.00     4400.00
04323            -120.00     4000.00
04324            -120.00     3800.00
04325            -160.00     3600.00
04326            -160.00     3400.00
04327            -120.00     3200.00
04328            -120.00     2800.00
04329            -120.00     2600.00
04330            -120.00     2200.00
04331            -120.00     2000.00
04332            -120.00     1800.00
04333             -80.00     1600.00
04334             -40.00     1200.00
04335             -40.00     1200.00
04336             -40.00      800.00
04337             -80.00      600.00
04338            -120.00      200.00
04339            -120.00     -200.00
04340             -40.00     -200.00
04341             120.00     -600.00
04342             160.00    -1000.00
04343             160.00    -1000.00
04344              40.00    -1200.00
04345              40.00    -1400.00
04346               0.00    -1800.00
04347              80.00    -2000.00
04348             480.00    -2200.00
04349            1240.00    -2600.00
04350             760.00    -3000.00
04351            -480.00    -3000.00
04352           -1160.00    -3600.00
04353           -1000.00    -3600.00
04354            -840.00    -3800.00
04355            -520.00    -3800.00
04356             480.00    -4600.00
04357             400.00    -4600.00
04358             480.00    -4400.00
04359             280.00    -5400.00
04360            -120.00    -5000.00
04361             280.00    -5800.00
04362             120.00    -5800.00
04363              40.00    -6200.00
04364             120.00    -6600.00
04365               0.00    -6200.00
04366            -200.00    -7200.00
04367             -40.00    -6800.00
04368             160.00    -7200.00
04369             -40.00    -7600.00
04370               0.00    -7600.00
04371             160.00    -8200.00
04372              40.00    -8000.00
04373               0.00    -8600.00
04374             120.00    -8600.00
04375             120.00    -8800.00
04376               0.00    -9200.00
04377               0.00    -9400.00
04378              40.00    -9400.00
04379              40.00    -9600.00
04380              40.00   -10000.00
04381             120.00   -10000.00
04382             120.00   -10200.00
04383              80.00   -10600.00
04384             120.00   -10600.00
04385             120.00   -10800.00
04386             120.00   -11000.00
04387             120.00   -11000.00
04388             160.00   -11400.00
04389             120.00   -11400.00
04390             120.00   -11600.00
04391             200.00   -11800.00
04392             200.00   -12000.00
04393             160.00   -12000.00
04394             200.00   -12200.00
04395             240.00   -12200.00
04396             200.00   -12400.00
04397             280.00   -12600.00
04398             280.00   -12600.00
04399             280.00   -13000.00
04400             280.00   -13000.00
04401             320.00   -13000.00
04402             320.00   -13200.00
04403             360.00   -13200.00
04404             400.00   -13400.00
04405             440.00   -13400.00
04406             440.00   -13400.00
04407             440.00   -13400.00
04408             480.00   -13600.00
04409             480.00   -13800.00
04410             520.00   -14000.00
04411             600.00   -13800.00
04412             640.00   -14000.00
04413             640.00   -14000.00
04414             760.00   -14000.00
04415             760.00   -14000.00
04416             800.00   -14000.00
04417             840.00   -14000.00
04418             920.00   -14200.00
04419             960.00   -14200.00
04420            1080.00   -14200.00
04421            1120.00   -14200.00
04422            1240.00   -14200.00
04423            1280.00   -14200.00
04424            1440.00   -14200.00
04425            1560.00   -14000.00
04426            1640.00   -14200.00
04427            1760.00   -14000.00
04428            1880.00   -14200.00
04429            1960.00   -14000.00
04430            2040.00   -14000.00
04431            2080.00   -14000.00
04432            2200.00   -14000.00
04433            2240.00   -14000.00
04434            2200.00   -13600.00
04435            2200.00   -13800.00
04436            2160.00   -13600.00
04437            2120.00   -13600.00
04438            2040.00   -13400.00
04439            1960.00   -13400.00
04440            1800.00   -13400.00
04441            1640.00   -13200.00
04442            1560.00   -13400.00
04443            1400.00   -13000.00
04444            1320.00   -13000.00
04445            1240.00   -13000.00
04446            1080.00   -12800.00
04447             960.00   -12800.00
04448             840.00   -12600.00
04449             760.00   -12400.00
04450             760.00   -12200.00
04451             680.00   -12200.00
04452             600.00   -12200.00
04453             520.00   -11800.00
04454             480.00   -11800.00
04455             440.00   -11400.00
04456             440.00   -11400.00
04457             440.00   -11400.00
04458             320.00   -11000.00
04459             360.00   -11000.00
04460             320.00   -10800.00
04461             320.00   -10600.00
04462             280.00   -10400.00
04463             280.00   -10200.00
04464             280.00    -9800.00
04465             240.00    -9800.00
04466             200.00    -9800.00
04467             200.00    -9400.00
04468             200.00    -9400.00
04469             160.00    -9200.00
04470             200.00    -9000.00
04471             160.00    -8600.00
04472             160.00    -8600.00
04473             160.00    -8200.00
04474             160.00    -8200.00
04475             120.00    -7800.00
04476             160.00    -7600.00
04477             120.00    -7200.00
04478             160.00    -7000.00
04479             120.00    -6800.00
04480             160.00    -6600.00
04481             120.00    -6600.00
04482             160.00    -6200.00
04483             120.00    -5800.00
04484             120.00    -5600.00
04485             120.00    -5400.00
04486             120.00    -5200.00
04487             120.00    -4800.00
04488             120.00    -4600.00
04489              80.00    -4400.00
04490             120.00    -4200.00
04491             120.00    -3800.00
04492             120.00    -3600.00
04493             120.00    -3400.00
04494              80.00    -3000.00
04495              40.00    -2800.00
04496              40.00    -2600.00
04497             120.00    -2400.00
04498              40.00    -2000.00
04499              40.00    -2000.00
04500              40.00    -1400.00
04501              40.00    -1200.00
04502              40.00    -1000.00
04503              40.00     -800.00
04504              40.00     -600.00
04505             120.00     -200.00
04506              40.00        0.00
04507              40.00      200.00
04508             120.00      600.00
04509             240.00      800.00
04510             280.00     1000.00
04511             160.00     1200.00
04512             160.00     1400.00
04513             120.00     1800.00
04514             280.00     2000.00
04515             960.00     2400.00
04516            1480.00     2800.00
04517             480.00     3000.00
04518           -1000.00     3000.00
04519           -1400.00     3400.00
04520           -1240.00     3800.00
04521            -800.00     3800.00
04522             640.00     4000.00
04523             600.00     4200.00
04524             440.00     4600.00
04525             280.00     4600.00
04526            -240.00     5200.00
04527             240.00     5800.00
04528             -40.00     5200.00
04529              80.00     6200.00
04530             200.00     6000.00
04531            -120.00     6400.00
04532            -120.00     6800.00
04533            -200.00     6600.00
04534             160.00     7400.00
04535             -80.00     7000.00
04536               0.00     7600.00
04537             120.00     7800.00
04538             -40.00     7800.00
04539             -40.00     8400.00
04540             -40.00     8200.00
04541               0.00     9000.00
04542            -120.00     8600.00
04543               0.00     9200.00
04544             -80.00     9400.00
04545             -40.00     9400.00
04546            -160.00     9800.00
04547               0.00    10000.00
04548             -40.00    10000.00
04549            -120.00    10200.00
04550             -40.00    10600.00
04551            -160.00    10600.00
04552            -120.00    10800.00
04553            -120.00    10800.00
04554            -120.00    11000.00
04555            -200.00    11400.00
04556            -200.00    11400.00
04557            -160.00    11800.00
04558            -160.00    12000.00
04559            -200.00    12000.00
04560            -200.00    12200.00
04561            -200.00    12400.00
04562            -280.00    12400.00
04563            -200.00    12600.00
04564            -200.00    12600.00
04565            -280.00    12600.00
04566            -320.00    12800.00
04567            -320.00    13000.00
04568            -320.00    13200.00
04569            -320.00    13200.00
04570            -320.00    13400.00
04571            -320.00    13400.00
04572            -440.00    13400.00
04573            -480.00    13400.00
04574            -480.00    13600.00
04575            -520.00    13800.00
04576            -520.00    13800.00
04577            -520.00    14000.00
04578            -600.00    13800.00
04579            -640.00    14000.00
04580            -640.00    13800.00
04581            -720.00    14000.00
04582            -800.00    14000.00
04583            -840.00    14200.00
04584            -840.00    14200.00
04585            -960.00    14200.00
04586           -1000.00    14000.00
04587           -1080.00    14200.00
04588           -1160.00    14200.00
04589           -1240.00    14000.00
04590           -1320.00    14200.00
04591           -1440.00    14200.00
04592           -1480.00    14200.00
04593           -1600.00    14200.00
04594           -1760.00    14200.00
04595           -1800.00    14200.00
04596           -1960.00    14200.00
04597           -2040.00    14000.00
04598           -2120.00    14200.00
04599           -2160.00    13800.00
04600           -2240.00    13800.00
04601           -2240.00    13800.00
04602           -2240.00    13800.00
04603           -2200.00    13800.00
04604           -2120.00    13800.00
04605           -2040.00    13800.00
04606           -1960.00    13600.00
04607           -1880.00    13400.00
04608           -1760.00    13400.00
04609           -1600.00    13400.00
04610           -1480.00    13200.00
04611           -1320.00    13000.00
04612           -1240.00    13000.00
04613           -1120.00    12800.00
04614           -1000.00    12600.00
04615            -960.00    12600.00
04616            -840.00    12400.00
04617            -760.00    12400.00
04618            -680.00    12200.00
04619            -640.00    12000.00
04620            -600.00    11800.00
04621            -520.00    11800.00
04622            -480.00    11600.00
04623            -440.00    11400.00
04624            -400.00    11400.00
04625            -360.00    11000.00
04626            -360.00    11000.00
04627            -360.00    11000.00
04628            -320.00    10600.00
04629            -320.00    10600.00
04630            -280.00    10200.00
04631            -320.00    10000.00
04632            -280.00     9800.00
04633            -280.00     9800.00
04634            -240.00     9400.00
04635            -280.00     9200.00
04636            -200.00     9200.00
04637            -200.00     9000.00
04638            -200.00     8600.00
04639            -200.00     8400.00
04640            -200.00     8400.00
04641            -200.00     7800.00
04642            -200.00     7800.00
04643            -200.00     7600.00
04644            -200.00     7200.00
04645            -200.00     7200.00
04646            -200.00     6800.00
04647            -200.00     6600.00
04648            -160.00     6600.00
04649            -160.00     6200.00
04650            -160.00     6000.00
04651            -160.00     5800.00
04652            -160.00     5400.00
04653            -200.00     5400.00
04654            -160.00     5000.00
04655            -120.00     4800.00
04656            -160.00     4400.00
04657            -120.00     4200.00
04658            -160.00     4000.00
04659            -120.00     3600.00
04660            -160.00     3400.00
04661            -120.00     3000.00
04662            -120.00     3000.00
04663             -40.00     2600.00
04664            -120.00     2400.00
04665            -120.00     2000.00
04666             -40.00     1800.00
04667            -120.00     1400.00
04668             -80.00     1200.00
04669            -120.00     1200.00
04670             -40.00      800.00
04671             -80.00      600.00
04672             -40.00      400.00
04673             -40.00        0.00
04674             -40.00     -200.00
04675               0.00     -600.00
04676             120.00     -800.00
04677             160.00    -1000.00
04678             120.00    -1200.00
04679              40.00    -1600.00
04680               0.00    -1800.00
04681              40.00    -1800.00
04682             320.00    -2200.00
04683            1040.00    -2600.00
04684            1040.00    -3000.00
04685            -120.00    -3000.00
04686           -1080.00    -3400.00
04687           -1120.00    -3600.00
04688            -880.00    -3800.00
04689            -760.00    -3800.00
04690             200.00    -4400.00
04691             440.00    -4600.00
04692             360.00    -4400.00
04693             360.00    -5400.00
04694            -120.00    -5200.00
04695             160.00    -5400.00
04696             200.00    -6000.00
04697               0.00    -5800.00
04698              40.00    -6600.00
04699               0.00    -6200.00
04700            -120.00    -7000.00
04701            -200.00    -7000.00
04702             120.00    -7000.00
04703               0.00    -7600.00
04704             -40.00    -7400.00
04705             120.00    -8200.00
04706              40.00    -7800.00
04707               0.00    -8400.00
04708              40.00    -8600.00
04709             160.00    -8600.00
04710               0.00    -9200.00
04711               0.00    -9000.00
04712               0.00    -9400.00
04713              40.00    -9400.00
04714              40.00   -10000.00
04715             120.00   -10000.00
04716             120.00   -10000.00
04717             120.00   -10600.00
04718             120.00   -10600.00
04719             120.00   -10600.00
04720             120.00   -10800.00
04721             120.00   -11000.00
04722             160.00   -11200.00
04723             160.00   -11600.00
04724             120.00   -11600.00
04725             160.00   -11600.00
04726             200.00   -11800.00
04727             200.00   -12000.00
04728             200.00   -12200.00
04729             240.00   -12200.00
04730             200.00   -12400.00
04731             200.00   -12400.00
04732             280.00   -12600.00
04733             280.00   -13000.00
04734             280.00   -13000.00
04735             320.00   -13000.00
04736             320.00   -13200.00
04737             360.00   -13200.00
04738             360.00   -13400.00
04739             440.00   -13200.00
04740             440.00   -13400.00
04741             440.00   -13800.00
04742             480.00   -13600.00
04743             480.00   -13600.00
04744             520.00   -13600.00
04745             600.00   -13800.00
04746             640.00   -13800.00
04747             640.00   -13800.00
04748             640.00   -14000.00
04749             760.00   -14000.00
04750             800.00   -14000.00
04751             840.00   -14200.00
04752             920.00   -14200.00
04753             960.00   -14000.00
04754            1000.00   -14200.00
04755            1120.00   -14200.00
04756            1200.00   -14200.00
04757            1280.00   -14000.00
04758            1400.00   -14200.00
04759            1560.00   -14200.00
04760            1600.00   -14200.00
04761            1720.00   -14200.00
04762            1800.00   -14000.00
04763            1920.00   -14000.00
04764            2040.00   -14200.00
04765            2080.00   -14000.00
04766            2120.00   -14000.00
04767            2200.00   -14000.00
04768            2240.00   -14000.00
04769            2200.00   -13600.00
04770            2200.00   -13600.00
04771            2120.00   -13600.00
04772            2080.00   -13600.00
04773            1960.00   -13400.00
04774            1880.00   -13400.00
04775            1720.00   -13200.00
04776            1600.00   -13200.00
04777            1440.00   -13200.00
04778            1320.00   -13000.00
04779            1240.00   -13000.00
04780            1080.00   -12800.00
04781             960.00   -12600.00
04782             960.00   -12600.00
04783             800.00   -12400.00
04784             760.00   -12200.00
04785             680.00   -12200.00
04786             600.00   -12200.00
04787             560.00   -12000.00
04788             480.00   -11800.00
04789             480.00   -11600.00
04790             440.00   -11400.00
04791             360.00   -11400.00
04792             360.00   -11000.00
04793             360.00   -11000.00
04794             320.00   -10800.00
04795             320.00   -10600.00
04796             280.00   -10400.00
04797             280.00   -10200.00
04798             280.00   -10000.00
04799             240.00    -9800.00
04800             240.00    -9800.00
04801             200.00    -9600.00
04802             200.00    -9200.00
04803             200.00    -9000.00
04804             200.00    -9000.00
04805             280.00    -8800.00
04806             160.00    -8400.00
04807             160.00    -8200.00
04808             160.00    -8200.00
04809             120.00    -7600.00
04810             160.00    -7600.00
04811             160.00    -7200.00
04812             160.00    -7000.00
04813             120.00    -6800.00
04814             120.00    -6600.00
04815             120.00    -6400.00
04816             120.00    -6200.00
04817             120.00    -6000.00
04818             120.00    -5600.00
04819             120.00    -5400.00
04820             120.00    -5200.00
04821             120.00    -5000.00
04822              80.00    -4800.00
04823             120.00    -4600.00
04824             120.00    -4200.00
04825              80.00    -4200.00
04826             120.00    -3800.00
04827              40.00    -3400.00
04828              80.00    -3200.00
04829              40.00    -3000.00
04830              40.00    -2600.00
04831              40.00    -2400.00
04832              40.00    -2200.00
04833              80.00    -1800.00
04834              40.00    -1600.00
04835              40.00    -1200.00
04836              40.00    -1000.00
04837              40.00     -800.00
04838              40.00     -600.00
04839              40.00     -200.00
04840              40.00        0.00
04841             120.00      200.00
04842             120.00      400.00
04843             200.00      800.00
04844             280.00     1000.00
04845             240.00     1200.00
04846             160.00     1400.00
04847             120.00     1800.00
04848             160.00     2000.00
04849             600.00     2200.00
04850            1480.00     2800.00
04851             960.00     2800.00
04852            -600.00     3200.00
04853           -1440.00     3000.00
04854           -1280.00     3600.00
04855           -1080.00     3800.00
04856             280.00     4200.00
04857             800.00     4200.00
04858             400.00     4600.00
04859             440.00     4800.00
04860            -200.00     4600.00
04861             120.00     5800.00
04862             120.00     5200.00
04863             -80.00     5800.00
04864             320.00     6200.00
04865             -40.00     6000.00
04866             -80.00     7000.00
04867            -240.00     6600.00
04868              40.00     7200.00
04869              40.00     7000.00
04870            -120.00     7400.00
04871             120.00     7800.00
04872             -40.00     7800.00
04873               0.00     8400.00
04874             -40.00     8200.00
04875              40.00     8800.00
04876            -120.00     8600.00
04877             -40.00     9000.00
04878             -40.00     9400.00
04879            -120.00     9400.00
04880             -40.00     9800.00
04881             -80.00     9800.00
04882               0.00    10000.00
04883            -120.00    10200.00
04884             -40.00    10600.00
04885            -160.00    10600.00
04886            -120.00    10800.00
04887            -160.00    11000.00
04888            -120.00    11000.00
04889            -160.00    11400.00
04890            -200.00    11400.00
04891            -200.00    11800.00
04892            -160.00    11800.00
04893            -160.00    12000.00
04894            -200.00    12200.00
04895            -200.00    12200.00
04896            -280.00    12400.00
04897            -280.00    12400.00
04898            -200.00    12600.00
04899            -280.00    12800.00
04900            -320.00    12800.00
04901            -320.00    13000.00
04902            -320.00    13200.00
04903            -320.00    13000.00
04904            -320.00    13200.00
04905            -360.00    13400.00
04906            -440.00    13400.00
04907            -440.00    13400.00
04908            -520.00    13600.00
04909            -520.00    13600.00
04910            -520.00    13800.00
04911            -520.00    13800.00
04912            -600.00    14000.00
04913            -600.00    14000.00
04914            -640.00    14000.00
04915            -680.00    14000.00
04916            -760.00    14200.00
04917            -800.00    14000.00
04918            -840.00    14200.00
04919            -920.00    14200.00
04920            -960.00    14200.00
04921           -1040.00    14200.00
04922           -1120.00    14200.00
04923           -1160.00    14200.00
04924           -1280.00    14200.00
04925           -1360.00    14200.00
04926           -1480.00    14200.00
04927           -1600.00    14200.00
04928           -1720.00    14200.00
04929           -1800.00    14200.00
04930           -1920.00    14200.00
04931           -1960.00    14200.00
04932           -2080.00    14200.00
04933           -2120.00    14000.00
04934           -2200.00    14000.00
04935           -2240.00    13800.00
04936           -2240.00    13800.00
04937           -2200.00    13800.00
04938           -2120.00    13800.00
04939           -2120.00    13600.00
04940           -2000.00    13600.00
04941           -1920.00    13400.00
04942           -1800.00    13400.00
04943           -1640.00    13200.00
04944           -1480.00    13400.00
04945           -1400.00    13000.00
04946           -1280.00    13000.00
04947           -1120.00    13000.00
04948           -1080.00    12800.00
04949            -960.00    12600.00
04950            -840.00    12600.00
04951            -760.00    12400.00
04952            -720.00    12400.00
04953            -640.00    12200.00
04954            -600.00    12000.00
04955            -560.00    11800.00
04956            -520.00    11600.00
04957            -480.00    11400.00
04958            -440.00    11400.00
04959            -440.00    11400.00
04960            -360.00    11000.00
04961            -360.00    10800.00
04962            -360.00    10600.00
04963            -320.00    10400.00
04964            -320.00    10200.00
04965            -280.00    10200.00
04966            -280.00     9800.00
04967            -280.00     9800.00
04968            -280.00     9400.00
04969            -280.00     9200.00
04970            -280.00     9200.00
04971            -200.00     9000.00
04972            -200.00     8600.00
04973            -200.00     8400.00
04974            -200.00     8400.00
04975            -200.00     8000.00
04976            -200.00     7800.00
04977            -200.00     7800.00
04978            -160.00     7400.00
04979            -200.00     7000.00
04980            -200.00     7000.00
04981            -200.00     6800.00
04982            -160.00     6400.00
04983            -160.00     6200.00
04984            -160.00     6000.00
04985            -160.00     5800.00
04986            -160.00     5600.00
04987            -160.00     5400.00
04988            -160.00     5200.00
04989            -160.00     4600.00
04990            -120.00     4400.00
04991            -160.00     4200.00
04992            -120.00     4000.00
04993            -120.00     3800.00
04994            -120.00     3400.00
04995            -120.00     3400.00
04996            -120.00     3000.00
04997             -80.00     2800.00
04998             -40.00     2400.00
04999            -120.00     2200.00
05000            -120.00     2000.00
