Unit:(mV)
                     CH1         CH2
Frequency              ? 299.073 kHz
00001             640.00    -2200.00
00002            1240.00    -2600.00
00003             640.00    -3000.00
00004            -600.00    -3200.00
00005           -1120.00    -3600.00
00006           -1000.00    -3600.00
00007            -920.00    -3600.00
00008            -160.00    -3800.00
00009             600.00    -4600.00
00010             320.00    -4400.00
00011             480.00    -5000.00
00012             120.00    -5400.00
00013               0.00    -5000.00
00014             280.00    -5800.00
00015              40.00    -5800.00
00016             160.00    -6400.00
00017             120.00    -6200.00
00018             -40.00    -6600.00
00019            -160.00    -7000.00
00020              40.00    -6800.00
00021             120.00    -7400.00
00022             -40.00    -7200.00
00023             120.00    -7800.00
00024             160.00    -7800.00
00025              80.00    -8200.00
00026              40.00    -8600.00
00027             160.00    -8400.00
00028             160.00    -9000.00
00029             120.00    -9000.00
00030             120.00    -9400.00
00031             120.00    -9400.00
00032              80.00    -9800.00
00033              80.00    -9800.00
00034             160.00    -9800.00
00035             120.00   -10200.00
00036              80.00   -10600.00
00037             160.00   -10600.00
00038             160.00   -10800.00
00039             120.00   -11000.00
00040             160.00   -11000.00
00041             160.00   -11000.00
00042              80.00   -11400.00
00043             120.00   -11600.00
00044             160.00   -11800.00
00045             160.00   -11800.00
00046             160.00   -12000.00
00047             200.00   -12200.00
00048             160.00   -12200.00
00049             160.00   -12400.00
00050             200.00   -12400.00
00051             200.00   -12600.00
00052             160.00   -12600.00
00053             160.00   -12600.00
00054             200.00   -13000.00
00055             200.00   -13000.00
00056             160.00   -13200.00
00057             240.00   -13200.00
00058             200.00   -13400.00
00059             160.00   -13400.00
00060             200.00   -13400.00
00061             200.00   -13600.00
00062             200.00   -13800.00
00063             240.00   -13600.00
00064             280.00   -13600.00
00065             200.00   -13800.00
00066             200.00   -13800.00
00067             200.00   -14000.00
00068             200.00   -14000.00
00069             240.00   -14000.00
00070             200.00   -14000.00
00071             280.00   -14000.00
00072             200.00   -14000.00
00073             280.00   -14000.00
00074             200.00   -14200.00
00075             200.00   -14000.00
00076             200.00   -13800.00
00077             240.00   -14000.00
00078             240.00   -14000.00
00079             200.00   -14000.00
00080             200.00   -14000.00
00081             240.00   -14000.00
00082             200.00   -14000.00
00083             240.00   -14000.00
00084             240.00   -13600.00
00085             200.00   -13800.00
00086             240.00   -13600.00
00087             200.00   -13600.00
00088             280.00   -13600.00
00089             200.00   -13600.00
00090             280.00   -13400.00
00091             280.00   -13400.00
00092             280.00   -13400.00
00093             200.00   -13400.00
00094             200.00   -13200.00
00095             200.00   -13200.00
00096             240.00   -13000.00
00097             280.00   -13000.00
00098             200.00   -12800.00
00099             200.00   -12800.00
00100             200.00   -12600.00
00101             280.00   -12200.00
00102             240.00   -12400.00
00103             200.00   -12200.00
00104             200.00   -12200.00
00105             240.00   -12000.00
00106             200.00   -11800.00
00107             200.00   -11600.00
00108             200.00   -11400.00
00109             200.00   -11400.00
00110             240.00   -11200.00
00111             200.00   -11000.00
00112             240.00   -10800.00
00113             200.00   -10800.00
00114             200.00   -10600.00
00115             200.00   -10600.00
00116             200.00   -10200.00
00117             200.00   -10000.00
00118             200.00    -9800.00
00119             160.00    -9400.00
00120             160.00    -9400.00
00121             200.00    -9200.00
00122             200.00    -9000.00
00123             200.00    -8800.00
00124             200.00    -8600.00
00125             240.00    -8400.00
00126             160.00    -8200.00
00127             160.00    -8000.00
00128             200.00    -7800.00
00129             160.00    -7200.00
00130             200.00    -7200.00
00131             160.00    -7000.00
00132             200.00    -6800.00
00133             120.00    -6600.00
00134             160.00    -6400.00
00135             160.00    -6000.00
00136             160.00    -5800.00
00137             160.00    -5600.00
00138             120.00    -5400.00
00139             120.00    -5200.00
00140             120.00    -5000.00
00141             120.00    -4600.00
00142             120.00    -4600.00
00143             120.00    -4000.00
00144             120.00    -3800.00
00145             120.00    -3600.00
00146             120.00    -3400.00
00147              80.00    -3000.00
00148              80.00    -2800.00
00149              80.00    -2600.00
00150             120.00    -2200.00
00151              80.00    -2000.00
00152              40.00    -1800.00
00153              40.00    -1600.00
00154              40.00    -1200.00
00155              80.00    -1000.00
00156              40.00     -600.00
00157              40.00     -600.00
00158              40.00     -200.00
00159              40.00        0.00
00160              40.00      200.00
00161             120.00      600.00
00162             240.00      800.00
00163             280.00     1000.00
00164             200.00     1200.00
00165             160.00     1400.00
00166             120.00     1800.00
00167             280.00     2000.00
00168            1000.00     2600.00
00169            1440.00     2800.00
00170             320.00     2800.00
00171           -1080.00     3000.00
00172           -1440.00     3400.00
00173           -1320.00     3600.00
00174            -520.00     4000.00
00175             760.00     3800.00
00176             440.00     4200.00
00177             520.00     4600.00
00178              80.00     4600.00
00179            -200.00     5400.00
00180             160.00     5600.00
00181            -160.00     5200.00
00182             200.00     6200.00
00183             160.00     5800.00
00184            -160.00     6800.00
00185            -200.00     6400.00
00186            -200.00     6600.00
00187              40.00     7400.00
00188            -160.00     6800.00
00189              40.00     7800.00
00190             -40.00     7600.00
00191             -40.00     8000.00
00192             -40.00     8000.00
00193             -40.00     8400.00
00194             -40.00     8600.00
00195            -160.00     8600.00
00196             -40.00     9200.00
00197            -160.00     9000.00
00198            -120.00     9400.00
00199            -200.00     9600.00
00200               0.00     9800.00
00201             -80.00    10200.00
00202            -120.00    10200.00
00203            -160.00    10200.00
00204            -160.00    10400.00
00205            -160.00    10800.00
00206            -200.00    10800.00
00207            -120.00    11000.00
00208            -200.00    11000.00
00209            -200.00    11400.00
00210            -200.00    11600.00
00211            -120.00    11600.00
00212            -200.00    11600.00
00213            -160.00    12200.00
00214            -200.00    12200.00
00215            -280.00    12200.00
00216            -200.00    12400.00
00217            -160.00    12600.00
00218            -200.00    12600.00
00219            -200.00    12600.00
00220            -200.00    12800.00
00221            -200.00    13000.00
00222            -200.00    13000.00
00223            -200.00    13200.00
00224            -200.00    13200.00
00225            -200.00    13200.00
00226            -280.00    13400.00
00227            -200.00    13600.00
00228            -240.00    13400.00
00229            -200.00    13400.00
00230            -200.00    13800.00
00231            -200.00    13800.00
00232            -240.00    13800.00
00233            -200.00    14000.00
00234            -200.00    13800.00
00235            -200.00    14000.00
00236            -200.00    14000.00
00237            -200.00    14000.00
00238            -280.00    14200.00
00239            -240.00    14000.00
00240            -200.00    14000.00
00241            -280.00    14200.00
00242            -240.00    14200.00
00243            -240.00    14200.00
00244            -240.00    14000.00
00245            -200.00    14000.00
00246            -280.00    14000.00
00247            -280.00    14000.00
00248            -280.00    14000.00
00249            -280.00    14000.00
00250            -200.00    14000.00
00251            -200.00    13800.00
00252            -280.00    13800.00
00253            -280.00    13800.00
00254            -280.00    13800.00
00255            -280.00    13800.00
00256            -200.00    13600.00
00257            -200.00    13400.00
00258            -200.00    13600.00
00259            -280.00    13400.00
00260            -240.00    13400.00
00261            -280.00    13200.00
00262            -240.00    13200.00
00263            -240.00    13000.00
00264            -200.00    13000.00
00265            -200.00    13000.00
00266            -280.00    13000.00
00267            -200.00    12600.00
00268            -200.00    12400.00
00269            -200.00    12200.00
00270            -200.00    12200.00
00271            -200.00    12200.00
00272            -280.00    11800.00
00273            -240.00    11800.00
00274            -280.00    11600.00
00275            -240.00    11400.00
00276            -200.00    11400.00
00277            -200.00    11000.00
00278            -240.00    11000.00
00279            -280.00    10800.00
00280            -240.00    10600.00
00281            -240.00    10600.00
00282            -200.00    10600.00
00283            -200.00    10200.00
00284            -200.00    10000.00
00285            -200.00     9800.00
00286            -240.00     9600.00
00287            -280.00     9400.00
00288            -200.00     9200.00
00289            -200.00     9000.00
00290            -200.00     8600.00
00291            -200.00     8600.00
00292            -200.00     8400.00
00293            -200.00     8200.00
00294            -200.00     7800.00
00295            -200.00     7800.00
00296            -200.00     7600.00
00297            -200.00     7400.00
00298            -200.00     7000.00
00299            -200.00     6800.00
00300            -200.00     6600.00
00301            -200.00     6400.00
00302            -160.00     6000.00
00303            -200.00     6000.00
00304            -160.00     5600.00
00305            -160.00     5200.00
00306            -200.00     5200.00
00307            -160.00     4800.00
00308            -160.00     4600.00
00309            -160.00     4200.00
00310            -120.00     4200.00
00311            -120.00     4000.00
00312            -120.00     3600.00
00313            -160.00     3400.00
00314            -160.00     3000.00
00315            -120.00     2800.00
00316            -120.00     2600.00
00317            -120.00     2400.00
00318            -120.00     2000.00
00319            -120.00     2000.00
00320            -120.00     1400.00
00321            -120.00     1400.00
00322            -120.00     1000.00
00323             -40.00      800.00
00324             -80.00      400.00
00325             -40.00      200.00
00326             -40.00     -200.00
00327             -40.00     -200.00
00328              40.00     -600.00
00329             120.00     -600.00
00330             160.00    -1000.00
00331             120.00    -1200.00
00332              40.00    -1400.00
00333               0.00    -1800.00
00334              40.00    -2000.00
00335             320.00    -2200.00
00336            1080.00    -2600.00
00337             960.00    -3000.00
00338            -200.00    -3400.00
00339           -1120.00    -3400.00
00340           -1080.00    -3600.00
00341            -960.00    -3600.00
00342            -560.00    -3800.00
00343             480.00    -4400.00
00344             360.00    -4600.00
00345             440.00    -4400.00
00346             320.00    -5400.00
00347             -40.00    -5200.00
00348             280.00    -5600.00
00349             120.00    -5800.00
00350             120.00    -6200.00
00351             160.00    -6600.00
00352               0.00    -6200.00
00353            -120.00    -7000.00
00354             -40.00    -6800.00
00355             160.00    -7000.00
00356               0.00    -7600.00
00357              40.00    -7600.00
00358             160.00    -8000.00
00359              80.00    -7800.00
00360              40.00    -8600.00
00361             120.00    -8600.00
00362             160.00    -8600.00
00363              80.00    -9200.00
00364              80.00    -9000.00
00365             120.00    -9400.00
00366              80.00    -9400.00
00367              40.00    -9800.00
00368             120.00    -9800.00
00369             160.00   -10000.00
00370             120.00   -10600.00
00371             160.00   -10600.00
00372             160.00   -10800.00
00373             120.00   -11000.00
00374             120.00   -11000.00
00375             160.00   -11000.00
00376             120.00   -11400.00
00377             120.00   -11400.00
00378             160.00   -11600.00
00379             200.00   -11800.00
00380             160.00   -11800.00
00381             160.00   -12200.00
00382             200.00   -12200.00
00383             120.00   -12200.00
00384             160.00   -12400.00
00385             240.00   -12600.00
00386             200.00   -12600.00
00387             160.00   -13000.00
00388             200.00   -12800.00
00389             200.00   -13000.00
00390             200.00   -13000.00
00391             240.00   -13200.00
00392             240.00   -13200.00
00393             200.00   -13400.00
00394             160.00   -13400.00
00395             200.00   -13600.00
00396             200.00   -13600.00
00397             240.00   -13800.00
00398             280.00   -13600.00
00399             280.00   -13600.00
00400             200.00   -13800.00
00401             200.00   -14000.00
00402             200.00   -14000.00
00403             200.00   -14000.00
00404             240.00   -14000.00
00405             200.00   -14000.00
00406             280.00   -14000.00
00407             200.00   -14200.00
00408             200.00   -14000.00
00409             280.00   -14200.00
00410             200.00   -14000.00
00411             200.00   -14200.00
00412             240.00   -14000.00
00413             280.00   -14000.00
00414             200.00   -14200.00
00415             200.00   -14000.00
00416             200.00   -14000.00
00417             240.00   -14000.00
00418             280.00   -14000.00
00419             280.00   -13800.00
00420             240.00   -14000.00
00421             200.00   -13600.00
00422             200.00   -13600.00
00423             200.00   -13600.00
00424             200.00   -13600.00
00425             240.00   -13400.00
00426             200.00   -13400.00
00427             240.00   -13200.00
00428             200.00   -13200.00
00429             240.00   -13200.00
00430             280.00   -13000.00
00431             280.00   -13000.00
00432             280.00   -12800.00
00433             280.00   -12600.00
00434             200.00   -12600.00
00435             200.00   -12400.00
00436             200.00   -12400.00
00437             200.00   -12200.00
00438             280.00   -12200.00
00439             200.00   -11800.00
00440             240.00   -11800.00
00441             200.00   -11800.00
00442             280.00   -11600.00
00443             200.00   -11400.00
00444             200.00   -11400.00
00445             280.00   -11000.00
00446             200.00   -11000.00
00447             200.00   -10800.00
00448             200.00   -10600.00
00449             200.00   -10400.00
00450             200.00   -10000.00
00451             200.00   -10000.00
00452             240.00    -9800.00
00453             160.00    -9800.00
00454             160.00    -9400.00
00455             160.00    -9200.00
00456             200.00    -9200.00
00457             160.00    -8800.00
00458             200.00    -8600.00
00459             160.00    -8400.00
00460             160.00    -8400.00
00461             160.00    -7800.00
00462             160.00    -7800.00
00463             200.00    -7600.00
00464             200.00    -7200.00
00465             160.00    -7200.00
00466             160.00    -6800.00
00467             120.00    -6600.00
00468             160.00    -6400.00
00469             160.00    -6200.00
00470             160.00    -6000.00
00471             160.00    -5800.00
00472             120.00    -5400.00
00473             120.00    -5200.00
00474             120.00    -5000.00
00475             120.00    -4600.00
00476             120.00    -4600.00
00477             120.00    -4400.00
00478             120.00    -4200.00
00479             120.00    -3600.00
00480              80.00    -3600.00
00481             120.00    -3200.00
00482             120.00    -3000.00
00483             120.00    -2800.00
00484             120.00    -2600.00
00485              40.00    -2200.00
00486              40.00    -1800.00
00487              40.00    -1800.00
00488              80.00    -1400.00
00489              40.00    -1200.00
00490              80.00     -800.00
00491              80.00     -600.00
00492              40.00     -400.00
00493              40.00        0.00
00494              40.00      200.00
00495              80.00      400.00
00496             200.00      600.00
00497             280.00     1000.00
00498             200.00     1200.00
00499             160.00     1400.00
00500             120.00     1600.00
00501             160.00     1800.00
00502             640.00     2200.00
00503            1480.00     2800.00
00504             840.00     2800.00
00505            -680.00     3000.00
00506           -1480.00     3200.00
00507           -1400.00     3600.00
00508           -1000.00     3800.00
00509             440.00     4000.00
00510             640.00     4000.00
00511             440.00     4800.00
00512             360.00     4600.00
00513            -280.00     4800.00
00514             160.00     5800.00
00515             -40.00     5200.00
00516             -40.00     6000.00
00517             280.00     6000.00
00518            -120.00     6200.00
00519            -160.00     6600.00
00520            -240.00     6200.00
00521               0.00     7400.00
00522             -80.00     6800.00
00523             -40.00     7400.00
00524              40.00     7800.00
00525            -120.00     7800.00
00526             -40.00     8200.00
00527            -120.00     8200.00
00528               0.00     8600.00
00529            -160.00     8400.00
00530             -40.00     9000.00
00531            -120.00     9200.00
00532            -160.00     9400.00
00533            -160.00     9400.00
00534            -120.00     9800.00
00535             -40.00     9800.00
00536            -160.00    10000.00
00537            -120.00    10200.00
00538            -200.00    10600.00
00539            -160.00    10800.00
00540            -200.00    10600.00
00541            -120.00    11000.00
00542            -200.00    11200.00
00543            -200.00    11400.00
00544            -200.00    11400.00
00545            -160.00    11600.00
00546            -160.00    11600.00
00547            -160.00    12000.00
00548            -200.00    12200.00
00549            -200.00    12200.00
00550            -200.00    12200.00
00551            -160.00    12400.00
00552            -200.00    12600.00
00553            -200.00    12800.00
00554            -200.00    12600.00
00555            -200.00    13000.00
00556            -200.00    13200.00
00557            -160.00    13200.00
00558            -200.00    13200.00
00559            -200.00    13400.00
00560            -240.00    13400.00
00561            -200.00    13400.00
00562            -280.00    13600.00
00563            -200.00    13600.00
00564            -200.00    13800.00
00565            -200.00    13800.00
00566            -200.00    13800.00
00567            -240.00    13800.00
00568            -240.00    13800.00
00569            -280.00    14000.00
00570            -200.00    14000.00
00571            -200.00    14000.00
00572            -200.00    14200.00
00573            -280.00    14200.00
00574            -200.00    14200.00
00575            -200.00    14200.00
00576            -240.00    14000.00
00577            -200.00    14200.00
00578            -200.00    14200.00
00579            -200.00    14000.00
00580            -240.00    14000.00
00581            -240.00    14000.00
00582            -280.00    14200.00
00583            -280.00    14000.00
00584            -280.00    14000.00
00585            -200.00    13800.00
00586            -280.00    13800.00
00587            -280.00    14000.00
00588            -280.00    13800.00
00589            -240.00    13800.00
00590            -280.00    13800.00
00591            -200.00    13600.00
00592            -240.00    13400.00
00593            -280.00    13400.00
00594            -280.00    13400.00
00595            -280.00    13200.00
00596            -280.00    13400.00
00597            -240.00    13200.00
00598            -240.00    13000.00
00599            -200.00    12800.00
00600            -280.00    12600.00
00601            -280.00    12600.00
00602            -280.00    12400.00
00603            -280.00    12400.00
00604            -280.00    12200.00
00605            -240.00    12200.00
00606            -280.00    12000.00
00607            -280.00    11800.00
00608            -280.00    11800.00
00609            -280.00    11600.00
00610            -280.00    11400.00
00611            -200.00    11400.00
00612            -200.00    11000.00
00613            -280.00    10800.00
00614            -280.00    10800.00
00615            -280.00    10600.00
00616            -200.00    10600.00
00617            -240.00    10200.00
00618            -200.00    10000.00
00619            -200.00     9800.00
00620            -280.00     9600.00
00621            -240.00     9400.00
00622            -200.00     9400.00
00623            -200.00     9200.00
00624            -200.00     9000.00
00625            -200.00     8600.00
00626            -200.00     8400.00
00627            -200.00     8200.00
00628            -200.00     7800.00
00629            -200.00     7800.00
00630            -200.00     7600.00
00631            -200.00     7400.00
00632            -200.00     7000.00
00633            -200.00     6800.00
00634            -200.00     6600.00
00635            -200.00     6400.00
00636            -200.00     6000.00
00637            -200.00     6200.00
00638            -160.00     5800.00
00639            -160.00     5400.00
00640            -160.00     5200.00
00641            -160.00     5000.00
00642            -160.00     4600.00
00643            -160.00     4600.00
00644            -160.00     4200.00
00645            -160.00     4200.00
00646            -160.00     3600.00
00647            -120.00     3400.00
00648            -160.00     3400.00
00649            -120.00     3000.00
00650            -120.00     2800.00
00651            -120.00     2400.00
00652            -120.00     2200.00
00653             -40.00     2000.00
00654            -120.00     1600.00
00655            -120.00     1400.00
00656            -120.00     1200.00
00657            -120.00      800.00
00658             -80.00      600.00
00659             -40.00      400.00
00660             -40.00        0.00
00661             -40.00     -200.00
00662             -40.00     -400.00
00663             120.00     -800.00
00664             160.00     -800.00
00665             120.00    -1200.00
00666              40.00    -1400.00
00667              40.00    -1400.00
00668              40.00    -1800.00
00669             160.00    -2200.00
00670             800.00    -2400.00
00671            1160.00    -3000.00
00672             280.00    -3200.00
00673            -840.00    -3400.00
00674           -1120.00    -3600.00
00675           -1000.00    -3600.00
00676            -800.00    -3600.00
00677             160.00    -4200.00
00678             480.00    -4600.00
00679             360.00    -4400.00
00680             440.00    -5200.00
00681               0.00    -5200.00
00682             160.00    -5400.00
00683             200.00    -5800.00
00684              40.00    -5800.00
00685             200.00    -6600.00
00686              40.00    -6200.00
00687             -40.00    -6800.00
00688            -120.00    -7000.00
00689             120.00    -6800.00
00690              40.00    -7600.00
00691               0.00    -7200.00
00692             160.00    -7800.00
00693             120.00    -7800.00
00694             120.00    -8200.00
00695             120.00    -8600.00
00696             200.00    -8400.00
00697              80.00    -9000.00
00698              40.00    -9200.00
00699             120.00    -9200.00
00700             120.00    -9400.00
00701              40.00    -9800.00
00702             160.00   -10000.00
00703             200.00   -10000.00
00704             120.00   -10200.00
00705             160.00   -10600.00
00706             160.00   -10600.00
00707             160.00   -10800.00
00708             120.00   -11000.00
00709             160.00   -11000.00
00710             120.00   -11200.00
00711              80.00   -11400.00
00712             160.00   -11600.00
00713             200.00   -11600.00
00714             160.00   -11800.00
00715             160.00   -12000.00
00716             200.00   -12200.00
00717             160.00   -12200.00
00718             160.00   -12400.00
00719             160.00   -12600.00
00720             200.00   -12600.00
00721             160.00   -12800.00
00722             160.00   -13000.00
00723             200.00   -13000.00
00724             200.00   -13200.00
00725             200.00   -13400.00
00726             240.00   -13200.00
00727             200.00   -13400.00
00728             160.00   -13600.00
00729             160.00   -13400.00
00730             200.00   -13600.00
00731             200.00   -13800.00
00732             200.00   -13600.00
00733             240.00   -13800.00
00734             200.00   -13600.00
00735             160.00   -14000.00
00736             200.00   -14000.00
00737             200.00   -14000.00
00738             200.00   -14200.00
00739             200.00   -14000.00
00740             240.00   -14200.00
00741             200.00   -14200.00
00742             160.00   -14200.00
00743             200.00   -14000.00
00744             200.00   -14200.00
00745             200.00   -14000.00
00746             280.00   -14000.00
00747             240.00   -14200.00
00748             200.00   -14000.00
00749             200.00   -14000.00
00750             200.00   -14000.00
00751             200.00   -13600.00
00752             200.00   -14000.00
00753             280.00   -14000.00
00754             200.00   -13600.00
00755             200.00   -13800.00
00756             200.00   -13800.00
00757             240.00   -13600.00
00758             200.00   -13400.00
00759             280.00   -13600.00
00760             280.00   -13400.00
00761             240.00   -13400.00
00762             240.00   -13400.00
00763             200.00   -13200.00
00764             280.00   -13000.00
00765             280.00   -13000.00
00766             280.00   -12800.00
00767             280.00   -12800.00
00768             200.00   -12600.00
00769             200.00   -12600.00
00770             280.00   -12400.00
00771             240.00   -12200.00
00772             240.00   -12200.00
00773             200.00   -12000.00
00774             200.00   -11800.00
00775             200.00   -11600.00
00776             200.00   -11600.00
00777             240.00   -11400.00
00778             200.00   -11400.00
00779             200.00   -11000.00
00780             280.00   -11000.00
00781             240.00   -10800.00
00782             200.00   -10600.00
00783             200.00   -10200.00
00784             200.00   -10200.00
00785             200.00   -10200.00
00786             200.00    -9800.00
00787             200.00    -9600.00
00788             200.00    -9600.00
00789             160.00    -9200.00
00790             200.00    -9200.00
00791             160.00    -9000.00
00792             200.00    -8600.00
00793             160.00    -8600.00
00794             200.00    -8200.00
00795             160.00    -8200.00
00796             160.00    -7800.00
00797             160.00    -7600.00
00798             160.00    -7200.00
00799             160.00    -7400.00
00800             160.00    -7000.00
00801             160.00    -6800.00
00802             120.00    -6600.00
00803             120.00    -6400.00
00804             120.00    -6200.00
00805             160.00    -5800.00
00806             160.00    -5600.00
00807             120.00    -5400.00
00808             120.00    -5200.00
00809             120.00    -5000.00
00810             120.00    -4600.00
00811             120.00    -4200.00
00812             120.00    -4200.00
00813             120.00    -3800.00
00814             120.00    -3600.00
00815             120.00    -3200.00
00816             120.00    -3000.00
00817              80.00    -2800.00
00818             120.00    -2600.00
00819             120.00    -2200.00
00820             120.00    -2200.00
00821              40.00    -1800.00
00822              80.00    -1400.00
00823             120.00    -1200.00
00824              80.00    -1000.00
00825              80.00     -600.00
00826              40.00     -400.00
00827              40.00     -200.00
00828              40.00      200.00
00829             120.00      400.00
00830             160.00      600.00
00831             280.00     1000.00
00832             280.00     1000.00
00833             200.00     1400.00
00834             120.00     1600.00
00835             160.00     1800.00
00836             400.00     2000.00
00837            1280.00     2600.00
00838            1280.00     2600.00
00839            -120.00     2800.00
00840           -1280.00     3000.00
00841           -1440.00     3400.00
00842           -1280.00     3800.00
00843             -80.00     4200.00
00844             760.00     4000.00
00845             440.00     4400.00
00846             480.00     5000.00
00847            -120.00     4400.00
00848             -40.00     5800.00
00849             120.00     5200.00
00850            -160.00     5400.00
00851             280.00     6200.00
00852               0.00     5800.00
00853            -160.00     6800.00
00854            -200.00     6200.00
00855             -40.00     7000.00
00856               0.00     7000.00
00857            -120.00     7000.00
00858             120.00     7800.00
00859             -80.00     7600.00
00860             -40.00     8000.00
00861            -120.00     8000.00
00862             -40.00     8400.00
00863             -40.00     8600.00
00864            -120.00     8600.00
00865             -80.00     9200.00
00866            -160.00     9200.00
00867            -160.00     9400.00
00868            -160.00     9600.00
00869             -40.00    10000.00
00870            -120.00     9800.00
00871            -120.00    10200.00
00872            -160.00    10600.00
00873            -200.00    10600.00
00874            -160.00    10600.00
00875            -160.00    11000.00
00876            -160.00    11000.00
00877            -200.00    11200.00
00878            -160.00    11400.00
00879            -160.00    11600.00
00880            -160.00    11800.00
00881            -160.00    12000.00
00882            -160.00    12000.00
00883            -200.00    12200.00
00884            -200.00    12400.00
00885            -200.00    12400.00
00886            -200.00    12600.00
00887            -200.00    12600.00
00888            -200.00    12600.00
00889            -200.00    13000.00
00890            -200.00    13000.00
00891            -160.00    13000.00
00892            -160.00    13200.00
00893            -200.00    13200.00
00894            -200.00    13400.00
00895            -200.00    13400.00
00896            -200.00    13400.00
00897            -240.00    13800.00
00898            -200.00    13800.00
00899            -200.00    13800.00
00900            -200.00    13800.00
00901            -200.00    13800.00
00902            -200.00    13800.00
00903            -200.00    14000.00
00904            -240.00    14000.00
00905            -200.00    14000.00
00906            -240.00    14200.00
00907            -280.00    14200.00
00908            -280.00    14200.00
00909            -280.00    14200.00
00910            -200.00    14200.00
00911            -200.00    14200.00
00912            -200.00    14200.00
00913            -200.00    14200.00
00914            -280.00    14200.00
00915            -280.00    14000.00
00916            -280.00    14000.00
00917            -280.00    14000.00
00918            -280.00    14000.00
00919            -200.00    14000.00
00920            -240.00    13800.00
00921            -280.00    13800.00
00922            -280.00    13800.00
00923            -280.00    13800.00
00924            -280.00    13800.00
00925            -280.00    13400.00
00926            -280.00    13600.00
00927            -240.00    13400.00
00928            -280.00    13400.00
00929            -280.00    13400.00
00930            -280.00    13200.00
00931            -280.00    13200.00
00932            -240.00    13000.00
00933            -200.00    13000.00
00934            -280.00    12600.00
00935            -280.00    12600.00
00936            -280.00    12400.00
00937            -280.00    12600.00
00938            -280.00    12400.00
00939            -240.00    12200.00
00940            -240.00    12200.00
00941            -280.00    11800.00
00942            -280.00    11600.00
00943            -280.00    11600.00
00944            -280.00    11400.00
00945            -280.00    11400.00
00946            -200.00    11000.00
00947            -200.00    11000.00
00948            -240.00    10800.00
00949            -240.00    10600.00
00950            -200.00    10600.00
00951            -200.00    10200.00
00952            -200.00    10200.00
00953            -200.00    10000.00
00954            -200.00     9800.00
00955            -200.00     9600.00
00956            -200.00     9400.00
00957            -200.00     9200.00
00958            -200.00     9000.00
00959            -200.00     8600.00
00960            -200.00     8600.00
00961            -200.00     8400.00
00962            -160.00     8200.00
00963            -200.00     7800.00
00964            -200.00     7600.00
00965            -160.00     7400.00
00966            -160.00     7000.00
00967            -200.00     7000.00
00968            -160.00     6800.00
00969            -200.00     6600.00
00970            -200.00     6200.00
00971            -160.00     6000.00
00972            -200.00     5800.00
00973            -160.00     5400.00
00974            -160.00     5400.00
00975            -160.00     5200.00
00976            -200.00     5000.00
00977            -160.00     4400.00
00978            -120.00     4200.00
00979            -120.00     4000.00
00980            -160.00     3800.00
00981            -120.00     3600.00
00982            -160.00     3400.00
00983            -160.00     3000.00
00984            -120.00     2800.00
00985            -120.00     2600.00
00986             -80.00     2200.00
00987            -120.00     2000.00
00988            -120.00     1800.00
00989            -120.00     1400.00
00990            -120.00     1200.00
00991             -40.00     1000.00
00992             -80.00      800.00
00993            -120.00      400.00
00994            -120.00      200.00
00995             -40.00     -200.00
00996             -40.00     -200.00
00997              40.00     -600.00
00998             160.00     -800.00
00999             160.00    -1200.00
01000             120.00    -1200.00
01001               0.00    -1400.00
01002               0.00    -1800.00
01003              80.00    -2000.00
01004             480.00    -2200.00
01005            1200.00    -2800.00
01006             720.00    -3000.00
01007            -480.00    -3400.00
01008           -1120.00    -3600.00
01009           -1000.00    -3600.00
01010            -920.00    -3600.00
01011            -320.00    -4000.00
01012             520.00    -4600.00
01013             320.00    -4200.00
01014             480.00    -5000.00
01015             160.00    -5400.00
01016               0.00    -5000.00
01017             280.00    -5800.00
01018              40.00    -5800.00
01019             160.00    -6200.00
01020             120.00    -6200.00
01021               0.00    -6200.00
01022            -120.00    -7200.00
01023              40.00    -6600.00
01024             120.00    -7400.00
01025             -40.00    -7400.00
01026             120.00    -7600.00
01027             160.00    -7800.00
01028              40.00    -8200.00
01029             120.00    -8600.00
01030             200.00    -8400.00
01031             160.00    -8800.00
01032              40.00    -9000.00
01033             120.00    -9200.00
01034             160.00    -9400.00
01035              80.00    -9600.00
01036             120.00   -10000.00
01037             160.00    -9800.00
01038             120.00   -10200.00
01039             120.00   -10400.00
01040             160.00   -10600.00
01041             200.00   -10800.00
01042             120.00   -11000.00
01043             160.00   -11000.00
01044             160.00   -11200.00
01045             120.00   -11400.00
01046             120.00   -11400.00
01047             200.00   -11800.00
01048             200.00   -11800.00
01049             160.00   -12000.00
01050             160.00   -12200.00
01051             160.00   -12200.00
01052             160.00   -12400.00
01053             200.00   -12400.00
01054             200.00   -12600.00
01055             160.00   -12600.00
01056             120.00   -13000.00
01057             160.00   -13000.00
01058             160.00   -13000.00
01059             200.00   -13200.00
01060             240.00   -13400.00
01061             280.00   -13200.00
01062             160.00   -13400.00
01063             160.00   -13400.00
01064             200.00   -13400.00
01065             200.00   -13600.00
01066             200.00   -13600.00
01067             240.00   -13800.00
01068             200.00   -13800.00
01069             160.00   -14000.00
01070             160.00   -14000.00
01071             200.00   -14000.00
01072             160.00   -14000.00
01073             240.00   -14000.00
01074             200.00   -14000.00
01075             200.00   -14000.00
01076             200.00   -14000.00
01077             200.00   -14000.00
01078             240.00   -14000.00
01079             200.00   -14000.00
01080             240.00   -14000.00
01081             280.00   -14000.00
01082             240.00   -14000.00
01083             200.00   -14000.00
01084             200.00   -13800.00
01085             280.00   -14000.00
01086             200.00   -13600.00
01087             280.00   -14000.00
01088             280.00   -13600.00
01089             200.00   -13800.00
01090             240.00   -13600.00
01091             240.00   -13400.00
01092             200.00   -13400.00
01093             280.00   -13400.00
01094             280.00   -13400.00
01095             240.00   -13400.00
01096             200.00   -13200.00
01097             200.00   -13200.00
01098             200.00   -13000.00
01099             200.00   -13000.00
01100             280.00   -13000.00
01101             280.00   -12600.00
01102             240.00   -12600.00
01103             200.00   -12600.00
01104             200.00   -12400.00
01105             240.00   -12400.00
01106             240.00   -12200.00
01107             280.00   -12200.00
01108             280.00   -11800.00
01109             240.00   -11800.00
01110             240.00   -11600.00
01111             200.00   -11400.00
01112             200.00   -11200.00
01113             280.00   -11000.00
01114             200.00   -11000.00
01115             200.00   -10800.00
01116             200.00   -10800.00
01117             200.00   -10600.00
01118             200.00   -10200.00
01119             200.00   -10200.00
01120             200.00   -10000.00
01121             200.00    -9800.00
01122             200.00    -9600.00
01123             200.00    -9400.00
01124             160.00    -9200.00
01125             160.00    -9000.00
01126             200.00    -9000.00
01127             160.00    -8600.00
01128             200.00    -8200.00
01129             160.00    -8400.00
01130             160.00    -7800.00
01131             160.00    -7800.00
01132             160.00    -7400.00
01133             160.00    -7200.00
01134             160.00    -7000.00
01135             160.00    -6800.00
01136             120.00    -6600.00
01137             160.00    -6200.00
01138             120.00    -6000.00
01139             160.00    -6000.00
01140             160.00    -5800.00
01141             120.00    -5400.00
01142             160.00    -5200.00
01143             120.00    -5000.00
01144             120.00    -4600.00
01145             120.00    -4600.00
01146             160.00    -4000.00
01147             120.00    -3800.00
01148             120.00    -3600.00
01149             120.00    -3200.00
01150             120.00    -3000.00
01151              80.00    -3000.00
01152             120.00    -2600.00
01153             120.00    -2200.00
01154             120.00    -2200.00
01155             120.00    -2000.00
01156             120.00    -1800.00
01157              80.00    -1400.00
01158              80.00    -1000.00
01159             120.00     -600.00
01160              80.00     -600.00
01161              40.00     -200.00
01162              80.00        0.00
01163              40.00      400.00
01164             120.00      400.00
01165             280.00      800.00
01166             280.00     1000.00
01167             200.00     1200.00
01168             160.00     1400.00
01169             160.00     1600.00
01170             240.00     2000.00
01171             920.00     2200.00
01172            1480.00     2800.00
01173             480.00     2800.00
01174           -1000.00     3000.00
01175           -1480.00     3200.00
01176           -1320.00     3600.00
01177            -680.00     4000.00
01178             680.00     4000.00
01179             480.00     4200.00
01180             480.00     4800.00
01181             160.00     4400.00
01182            -200.00     5200.00
01183             200.00     5600.00
01184            -160.00     5200.00
01185             120.00     6200.00
01186             160.00     5800.00
01187            -160.00     6600.00
01188            -200.00     6600.00
01189            -200.00     6600.00
01190              80.00     7400.00
01191            -160.00     6800.00
01192               0.00     7600.00
01193             -40.00     7400.00
01194            -120.00     8000.00
01195             -40.00     8200.00
01196             -80.00     8200.00
01197               0.00     8600.00
01198            -200.00     8600.00
01199             -40.00     9000.00
01200            -160.00     9200.00
01201            -120.00     9400.00
01202            -160.00     9600.00
01203             -40.00     9800.00
01204             -80.00    10000.00
01205            -160.00    10200.00
01206            -120.00    10400.00
01207            -160.00    10600.00
01208            -160.00    10600.00
01209            -160.00    10800.00
01210            -160.00    11000.00
01211            -200.00    11200.00
01212            -200.00    11400.00
01213            -160.00    11600.00
01214            -160.00    11800.00
01215            -160.00    12000.00
01216            -160.00    12000.00
01217            -200.00    12200.00
01218            -200.00    12200.00
01219            -200.00    12200.00
01220            -160.00    12400.00
01221            -160.00    12600.00
01222            -200.00    12800.00
01223            -200.00    13000.00
01224            -200.00    13000.00
01225            -200.00    13000.00
01226            -160.00    13200.00
01227            -160.00    13400.00
01228            -200.00    13200.00
01229            -200.00    13400.00
01230            -200.00    13400.00
01231            -200.00    13600.00
01232            -200.00    13400.00
01233            -200.00    13800.00
01234            -200.00    13800.00
01235            -200.00    14000.00
01236            -200.00    13800.00
01237            -200.00    14000.00
01238            -200.00    14000.00
01239            -200.00    14000.00
01240            -200.00    14200.00
01241            -240.00    14200.00
01242            -240.00    14200.00
01243            -240.00    14200.00
01244            -240.00    14200.00
01245            -280.00    14000.00
01246            -200.00    14200.00
01247            -200.00    14000.00
01248            -240.00    14200.00
01249            -280.00    14000.00
01250            -280.00    14000.00
01251            -280.00    14000.00
01252            -280.00    13800.00
01253            -280.00    14000.00
01254            -200.00    14000.00
01255            -280.00    13800.00
01256            -280.00    13800.00
01257            -280.00    13800.00
01258            -280.00    13800.00
01259            -200.00    13800.00
01260            -200.00    13600.00
01261            -240.00    13400.00
01262            -280.00    13400.00
01263            -280.00    13400.00
01264            -320.00    13200.00
01265            -200.00    13200.00
01266            -280.00    13000.00
01267            -200.00    13000.00
01268            -280.00    13000.00
01269            -280.00    13000.00
01270            -280.00    12600.00
01271            -280.00    12400.00
01272            -240.00    12400.00
01273            -280.00    12200.00
01274            -280.00    12200.00
01275            -280.00    12000.00
01276            -200.00    11800.00
01277            -280.00    11800.00
01278            -200.00    11600.00
01279            -280.00    11400.00
01280            -200.00    11200.00
01281            -200.00    11000.00
01282            -240.00    11000.00
01283            -240.00    10800.00
01284            -240.00    10600.00
01285            -240.00    10200.00
01286            -200.00    10400.00
01287            -200.00    10000.00
01288            -200.00     9800.00
01289            -200.00     9800.00
01290            -200.00     9400.00
01291            -200.00     9200.00
01292            -200.00     9000.00
01293            -200.00     8600.00
01294            -200.00     8600.00
01295            -200.00     8400.00
01296            -200.00     8200.00
01297            -200.00     7800.00
01298            -200.00     7800.00
01299            -200.00     7600.00
01300            -160.00     7400.00
01301            -160.00     7000.00
01302            -200.00     6800.00
01303            -200.00     6600.00
01304            -160.00     6600.00
01305            -160.00     6200.00
01306            -160.00     5800.00
01307            -160.00     5800.00
01308            -160.00     5600.00
01309            -160.00     5200.00
01310            -160.00     4800.00
01311            -160.00     4600.00
01312            -160.00     4400.00
01313            -120.00     4200.00
01314            -160.00     4000.00
01315            -160.00     3600.00
01316            -160.00     3400.00
01317            -160.00     3000.00
01318            -160.00     3000.00
01319            -120.00     2800.00
01320            -120.00     2600.00
01321            -120.00     2000.00
01322            -120.00     1800.00
01323            -120.00     1600.00
01324            -120.00     1400.00
01325             -40.00     1000.00
01326            -120.00      800.00
01327             -40.00      400.00
01328            -120.00      200.00
01329            -120.00     -200.00
01330             -40.00     -200.00
01331               0.00     -400.00
01332             120.00     -800.00
01333             160.00    -1000.00
01334             120.00    -1200.00
01335              40.00    -1400.00
01336               0.00    -1600.00
01337              40.00    -1800.00
01338             280.00    -2000.00
01339            1000.00    -2600.00
01340            1080.00    -3000.00
01341             -40.00    -3000.00
01342           -1000.00    -3400.00
01343           -1120.00    -3600.00
01344            -960.00    -3400.00
01345            -640.00    -3600.00
01346             440.00    -4600.00
01347             440.00    -4600.00
01348             440.00    -4400.00
01349             320.00    -5400.00
01350             -40.00    -5200.00
01351             280.00    -5400.00
01352             160.00    -5800.00
01353             120.00    -5800.00
01354             200.00    -6600.00
01355               0.00    -6000.00
01356            -120.00    -7000.00
01357             -40.00    -6800.00
01358             160.00    -7000.00
01359               0.00    -7600.00
01360              40.00    -7400.00
01361             160.00    -8000.00
01362             120.00    -7800.00
01363             120.00    -8400.00
01364             120.00    -8600.00
01365             200.00    -8600.00
01366             120.00    -9000.00
01367             120.00    -9200.00
01368              40.00    -9400.00
01369             120.00    -9400.00
01370              80.00    -9800.00
01371             200.00    -9800.00
01372             160.00   -10000.00
01373             120.00   -10600.00
01374             160.00   -10600.00
01375             160.00   -10800.00
01376             120.00   -11000.00
01377             120.00   -11000.00
01378             160.00   -11000.00
01379             120.00   -11400.00
01380             120.00   -11400.00
01381             160.00   -11600.00
01382             160.00   -11600.00
01383             120.00   -12000.00
01384             160.00   -12200.00
01385             160.00   -12200.00
01386             160.00   -12400.00
01387             160.00   -12600.00
01388             200.00   -12600.00
01389             200.00   -12600.00
01390             160.00   -12800.00
01391             160.00   -12800.00
01392             200.00   -13000.00
01393             160.00   -13200.00
01394             200.00   -13200.00
01395             240.00   -13200.00
01396             160.00   -13400.00
01397             160.00   -13600.00
01398             200.00   -13600.00
01399             200.00   -13400.00
01400             200.00   -13800.00
01401             200.00   -13600.00
01402             280.00   -13800.00
01403             200.00   -13600.00
01404             200.00   -14000.00
01405             200.00   -14000.00
01406             200.00   -14000.00
01407             200.00   -14000.00
01408             280.00   -14000.00
01409             280.00   -14000.00
01410             200.00   -14200.00
01411             280.00   -14200.00
01412             280.00   -14000.00
01413             200.00   -14000.00
01414             200.00   -14000.00
01415             280.00   -14000.00
01416             160.00   -14200.00
01417             120.00   -14000.00
01418             120.00   -14000.00
01419             280.00   -13600.00
01420             360.00   -14000.00
01421             480.00   -13800.00
01422             440.00   -14000.00
01423             320.00   -13600.00
01424             160.00   -13600.00
01425               0.00   -13600.00
01426               0.00   -13400.00
01427             120.00   -13600.00
01428             280.00   -13400.00
01429             360.00   -13400.00
01430             360.00   -13200.00
01431             360.00   -13400.00
01432             320.00   -13200.00
01433             280.00   -13000.00
01434             240.00   -13000.00
01435             200.00   -12800.00
01436             120.00   -12800.00
01437             120.00   -12600.00
01438             160.00   -12600.00
01439             280.00   -12400.00
01440             320.00   -12400.00
01441             320.00   -12200.00
01442             360.00   -12000.00
01443             280.00   -11800.00
01444             200.00   -11800.00
01445             120.00   -11600.00
01446             120.00   -11400.00
01447             160.00   -11400.00
01448             160.00   -11000.00
01449             200.00   -11000.00
01450             280.00   -10800.00
01451             280.00   -10600.00
01452             320.00   -10600.00
01453             280.00   -10200.00
01454             200.00   -10200.00
01455             120.00   -10000.00
01456              40.00    -9600.00
01457             120.00    -9400.00
01458             120.00    -9200.00
01459             200.00    -9200.00
01460             280.00    -9000.00
01461             280.00    -8800.00
01462             200.00    -8600.00
01463             200.00    -8200.00
01464             120.00    -8200.00
01465             120.00    -7800.00
01466             120.00    -7600.00
01467             120.00    -7400.00
01468             160.00    -7200.00
01469             160.00    -6800.00
01470             240.00    -6800.00
01471             200.00    -6600.00
01472             160.00    -6200.00
01473             120.00    -6000.00
01474             120.00    -5800.00
01475             120.00    -5400.00
01476             120.00    -5200.00
01477             160.00    -5000.00
01478             120.00    -4800.00
01479             120.00    -4600.00
01480             160.00    -4400.00
01481             120.00    -4000.00
01482             120.00    -3800.00
01483             120.00    -3400.00
01484             120.00    -3200.00
01485             120.00    -3000.00
01486             120.00    -2600.00
01487             120.00    -2400.00
01488             120.00    -2200.00
01489              80.00    -2000.00
01490             120.00    -1600.00
01491              40.00    -1400.00
01492             120.00    -1000.00
01493             120.00     -800.00
01494             120.00     -600.00
01495              40.00     -400.00
01496              40.00        0.00
01497             120.00      200.00
01498             120.00      400.00
01499             200.00      600.00
01500             280.00     1000.00
01501             200.00     1200.00
01502             160.00     1400.00
01503             120.00     1400.00
01504             160.00     1800.00
01505             560.00     2200.00
01506            1400.00     2600.00
01507            1000.00     2800.00
01508            -480.00     3000.00
01509           -1480.00     3000.00
01510           -1360.00     3600.00
01511           -1120.00     3800.00
01512             320.00     4000.00
01513             680.00     3800.00
01514             440.00     4600.00
01515             440.00     4600.00
01516            -240.00     4600.00
01517              40.00     5800.00
01518               0.00     5200.00
01519            -120.00     5800.00
01520             280.00     6000.00
01521            -120.00     6000.00
01522            -160.00     6800.00
01523            -280.00     6200.00
01524               0.00     7400.00
01525             -40.00     6800.00
01526            -120.00     7000.00
01527              40.00     7800.00
01528            -160.00     7600.00
01529             -40.00     8200.00
01530            -160.00     8000.00
01531               0.00     8600.00
01532            -200.00     8400.00
01533            -120.00     8800.00
01534             -80.00     9200.00
01535            -160.00     9200.00
01536            -160.00     9600.00
01537            -120.00     9600.00
01538             -40.00    10000.00
01539            -120.00    10000.00
01540            -120.00    10200.00
01541            -160.00    10600.00
01542            -120.00    10600.00
01543            -160.00    10800.00
01544            -120.00    11000.00
01545            -160.00    11200.00
01546            -200.00    11400.00
01547            -160.00    11600.00
01548            -160.00    11600.00
01549            -120.00    11800.00
01550            -160.00    12000.00
01551            -160.00    12200.00
01552            -200.00    12200.00
01553            -200.00    12400.00
01554            -160.00    12400.00
01555            -160.00    12600.00
01556            -200.00    12800.00
01557            -200.00    12800.00
01558            -200.00    13000.00
01559            -200.00    13000.00
01560            -200.00    13200.00
01561            -160.00    13200.00
01562            -200.00    13400.00
01563            -200.00    13200.00
01564            -200.00    13400.00
01565            -200.00    13600.00
01566            -200.00    13600.00
01567            -200.00    13600.00
01568            -200.00    13800.00
01569            -200.00    13800.00
01570            -200.00    14000.00
01571            -200.00    13800.00
01572            -200.00    14000.00
01573            -200.00    14000.00
01574            -240.00    14000.00
01575            -280.00    14200.00
01576            -280.00    14000.00
01577            -280.00    14000.00
01578            -240.00    14000.00
01579            -240.00    14200.00
01580            -280.00    14200.00
01581            -240.00    14000.00
01582            -200.00    14200.00
01583            -280.00    14000.00
01584            -280.00    14000.00
01585            -280.00    14200.00
01586            -280.00    14000.00
01587            -280.00    13800.00
01588            -240.00    14000.00
01589            -280.00    13800.00
01590            -320.00    13800.00
01591            -280.00    13800.00
01592            -280.00    13800.00
01593            -280.00    13800.00
01594            -200.00    13600.00
01595            -280.00    13400.00
01596            -280.00    13400.00
01597            -280.00    13400.00
01598            -280.00    13200.00
01599            -280.00    13200.00
01600            -280.00    13400.00
01601            -240.00    13000.00
01602            -240.00    13000.00
01603            -280.00    13000.00
01604            -280.00    12600.00
01605            -240.00    12600.00
01606            -240.00    12400.00
01607            -280.00    12400.00
01608            -200.00    12200.00
01609            -280.00    12000.00
01610            -280.00    11800.00
01611            -280.00    11600.00
01612            -280.00    11600.00
01613            -240.00    11400.00
01614            -200.00    11200.00
01615            -200.00    11400.00
01616            -240.00    10800.00
01617            -240.00    10800.00
01618            -240.00    10600.00
01619            -200.00    10400.00
01620            -200.00    10200.00
01621            -200.00    10000.00
01622            -200.00     9800.00
01623            -200.00     9800.00
01624            -200.00     9600.00
01625            -200.00     9200.00
01626            -200.00     9200.00
01627            -200.00     9000.00
01628            -200.00     8800.00
01629            -200.00     8400.00
01630            -200.00     8200.00
01631            -200.00     7800.00
01632            -200.00     7800.00
01633            -200.00     7600.00
01634            -200.00     7400.00
01635            -160.00     7000.00
01636            -200.00     6800.00
01637            -200.00     6600.00
01638            -200.00     6600.00
01639            -160.00     6200.00
01640            -160.00     6000.00
01641            -200.00     5800.00
01642            -160.00     5400.00
01643            -200.00     5400.00
01644            -160.00     5000.00
01645            -200.00     4800.00
01646            -160.00     4400.00
01647            -160.00     4200.00
01648            -120.00     4000.00
01649            -160.00     3800.00
01650            -160.00     3400.00
01651            -160.00     3200.00
01652            -160.00     3000.00
01653            -120.00     2800.00
01654            -160.00     2400.00
01655            -120.00     2200.00
01656            -120.00     1800.00
01657            -120.00     1800.00
01658            -120.00     1400.00
01659            -120.00     1000.00
01660            -120.00     1000.00
01661             -40.00      600.00
01662            -120.00      400.00
01663             -80.00      200.00
01664             -40.00     -200.00
01665               0.00     -400.00
01666             120.00     -600.00
01667             160.00     -600.00
01668             120.00    -1200.00
01669              40.00    -1400.00
01670               0.00    -1600.00
01671              40.00    -2000.00
01672             160.00    -2000.00
01673             760.00    -2200.00
01674            1240.00    -2800.00
01675             440.00    -3000.00
01676            -760.00    -3400.00
01677           -1120.00    -3400.00
01678            -960.00    -3600.00
01679            -840.00    -3600.00
01680               0.00    -4200.00
01681             520.00    -4600.00
01682             360.00    -4400.00
01683             480.00    -5000.00
01684              40.00    -5200.00
01685             120.00    -5200.00
01686             280.00    -5800.00
01687              40.00    -5800.00
01688             200.00    -6400.00
01689              80.00    -6200.00
01690             -40.00    -6600.00
01691            -120.00    -7000.00
01692              80.00    -6800.00
01693             120.00    -7600.00
01694               0.00    -7400.00
01695             160.00    -7800.00
01696             160.00    -7800.00
01697             120.00    -8200.00
01698             120.00    -8600.00
01699             160.00    -8400.00
01700             160.00    -9000.00
01701              40.00    -9000.00
01702             120.00    -9200.00
01703             120.00    -9400.00
01704             120.00    -9600.00
01705             120.00   -10000.00
01706             200.00   -10000.00
01707             120.00   -10400.00
01708             120.00   -10400.00
01709             160.00   -10600.00
01710             160.00   -10800.00
01711             120.00   -11000.00
01712             160.00   -11000.00
01713             120.00   -11400.00
01714             120.00   -11400.00
01715             120.00   -11600.00
01716             160.00   -11600.00
01717             160.00   -11800.00
01718             160.00   -12000.00
01719             160.00   -12200.00
01720             120.00   -12200.00
01721             160.00   -12400.00
01722             200.00   -12400.00
01723             200.00   -12600.00
01724             160.00   -12600.00
01725             120.00   -13000.00
01726             200.00   -13000.00
01727             200.00   -13000.00
01728             200.00   -13200.00
01729             240.00   -13400.00
01730             200.00   -13400.00
01731             160.00   -13400.00
01732             200.00   -13400.00
01733             200.00   -13600.00
01734             200.00   -13600.00
01735             200.00   -13800.00
01736             280.00   -13600.00
01737             200.00   -13800.00
01738             160.00   -14000.00
01739             200.00   -13800.00
01740             200.00   -14000.00
01741             200.00   -14000.00
01742             240.00   -14000.00
01743             280.00   -14000.00
01744             200.00   -14000.00
01745             200.00   -14200.00
01746             280.00   -14200.00
01747             240.00   -14000.00
01748             240.00   -14000.00
01749             280.00   -14000.00
01750             240.00   -14200.00
01751             280.00   -14000.00
01752             200.00   -14000.00
01753             280.00   -14000.00
01754             280.00   -14000.00
01755             280.00   -13800.00
01756             280.00   -14000.00
01757             280.00   -13800.00
01758             280.00   -13600.00
01759             240.00   -13800.00
01760             200.00   -13600.00
01761             280.00   -13600.00
01762             280.00   -13400.00
01763             280.00   -13400.00
01764             280.00   -13400.00
01765             200.00   -13200.00
01766             240.00   -13200.00
01767             280.00   -13000.00
01768             280.00   -13200.00
01769             280.00   -13000.00
01770             240.00   -12800.00
01771             280.00   -12600.00
01772             200.00   -12400.00
01773             200.00   -12400.00
01774             240.00   -12200.00
01775             240.00   -12200.00
01776             200.00   -12200.00
01777             200.00   -11800.00
01778             200.00   -11800.00
01779             200.00   -11600.00
01780             200.00   -11400.00
01781             200.00   -11400.00
01782             200.00   -11200.00
01783             240.00   -11000.00
01784             200.00   -10800.00
01785             160.00   -10600.00
01786             200.00   -10600.00
01787             200.00   -10400.00
01788             200.00   -10000.00
01789             200.00   -10000.00
01790             200.00    -9800.00
01791             160.00    -9400.00
01792             160.00    -9400.00
01793             200.00    -9200.00
01794             160.00    -9000.00
01795             200.00    -9000.00
01796             200.00    -8600.00
01797             160.00    -8400.00
01798             160.00    -8200.00
01799             160.00    -7800.00
01800             160.00    -7600.00
01801             160.00    -7400.00
01802             200.00    -7200.00
01803             160.00    -7000.00
01804             160.00    -6800.00
01805             120.00    -6600.00
01806             120.00    -6200.00
01807             160.00    -6000.00
01808             160.00    -5600.00
01809             120.00    -5800.00
01810             160.00    -5400.00
01811             160.00    -5200.00
01812             120.00    -4800.00
01813             120.00    -4600.00
01814             120.00    -4400.00
01815             120.00    -4200.00
01816             120.00    -3800.00
01817             120.00    -3600.00
01818             120.00    -3400.00
01819             120.00    -3000.00
01820             120.00    -2800.00
01821             120.00    -2400.00
01822             120.00    -2200.00
01823             120.00    -2000.00
01824              80.00    -1800.00
01825             120.00    -1400.00
01826             120.00    -1200.00
01827             120.00     -800.00
01828              40.00     -800.00
01829              80.00     -400.00
01830              40.00     -200.00
01831              40.00      200.00
01832              40.00      400.00
01833             160.00      600.00
01834             240.00      800.00
01835             280.00     1000.00
01836             200.00     1200.00
01837             120.00     1400.00
01838             120.00     1600.00
01839             320.00     2000.00
01840            1120.00     2400.00
01841            1320.00     2800.00
01842              40.00     2800.00
01843           -1240.00     3000.00
01844           -1440.00     3400.00
01845           -1320.00     3800.00
01846            -280.00     4000.00
01847             760.00     3800.00
01848             360.00     4200.00
01849             520.00     4600.00
01850             -40.00     4400.00
01851            -160.00     5400.00
01852             160.00     5400.00
01853            -200.00     5400.00
01854             200.00     6200.00
01855               0.00     5800.00
01856            -160.00     6600.00
01857            -200.00     6200.00
01858            -120.00     6800.00
01859              40.00     7400.00
01860            -160.00     6800.00
01861              80.00     7800.00
01862             -80.00     7600.00
01863             -40.00     8200.00
01864            -120.00     8000.00
01865             -40.00     8400.00
01866             -40.00     8600.00
01867            -120.00     8400.00
01868             -40.00     9200.00
01869            -160.00     9200.00
01870            -120.00     9400.00
01871            -200.00     9400.00
01872               0.00     9800.00
01873            -120.00    10000.00
01874            -120.00    10200.00
01875            -120.00    10400.00
01876            -160.00    10600.00
01877            -160.00    10800.00
01878            -120.00    11000.00
01879            -120.00    11000.00
01880            -200.00    11200.00
01881            -200.00    11400.00
01882            -160.00    11800.00
01883            -120.00    11800.00
01884            -160.00    12000.00
01885            -160.00    12000.00
01886            -200.00    12200.00
01887            -200.00    12200.00
01888            -160.00    12400.00
01889            -120.00    12600.00
01890            -200.00    12600.00
01891            -200.00    12600.00
01892            -200.00    13000.00
01893            -200.00    13200.00
01894            -160.00    13000.00
01895            -160.00    13200.00
01896            -200.00    13200.00
01897            -240.00    13400.00
01898            -200.00    13400.00
01899            -200.00    13400.00
01900            -200.00    13600.00
01901            -200.00    13800.00
01902            -200.00    13800.00
01903            -200.00    13800.00
01904            -240.00    13800.00
01905            -280.00    14000.00
01906            -280.00    14000.00
01907            -200.00    13800.00
01908            -240.00    14000.00
01909            -200.00    14000.00
01910            -280.00    14200.00
01911            -280.00    14000.00
01912            -240.00    14200.00
01913            -240.00    14000.00
01914            -280.00    14200.00
01915            -240.00    14000.00
01916            -200.00    14200.00
01917            -280.00    14000.00
01918            -280.00    14000.00
01919            -280.00    14000.00
01920            -280.00    14000.00
01921            -280.00    14000.00
01922            -280.00    13800.00
01923            -280.00    13800.00
01924            -280.00    13800.00
01925            -280.00    14000.00
01926            -280.00    13800.00
01927            -280.00    13800.00
01928            -280.00    13600.00
01929            -280.00    13600.00
01930            -200.00    13400.00
01931            -280.00    13400.00
01932            -280.00    13400.00
01933            -280.00    13400.00
01934            -240.00    13200.00
01935            -280.00    13200.00
01936            -280.00    13000.00
01937            -240.00    13000.00
01938            -280.00    12600.00
01939            -280.00    12600.00
01940            -240.00    12600.00
01941            -240.00    12200.00
01942            -200.00    12200.00
01943            -200.00    12200.00
01944            -240.00    12000.00
01945            -280.00    11800.00
01946            -240.00    11600.00
01947            -200.00    11400.00
01948            -240.00    11400.00
01949            -200.00    11200.00
01950            -200.00    11000.00
01951            -280.00    11000.00
01952            -280.00    10800.00
01953            -200.00    10600.00
01954            -240.00    10200.00
01955            -200.00    10200.00
01956            -200.00    10000.00
01957            -200.00     9800.00
01958            -200.00     9600.00
01959            -200.00     9400.00
01960            -200.00     9200.00
01961            -200.00     9200.00
01962            -200.00     8600.00
01963            -200.00     8600.00
01964            -200.00     8200.00
01965            -200.00     8200.00
01966            -200.00     7800.00
01967            -200.00     7600.00
01968            -160.00     7400.00
01969            -200.00     7400.00
01970            -200.00     7000.00
01971            -200.00     6600.00
01972            -200.00     6600.00
01973            -160.00     6600.00
01974            -200.00     6200.00
01975            -200.00     5800.00
01976            -200.00     5600.00
01977            -200.00     5400.00
01978            -160.00     5200.00
01979            -160.00     4800.00
01980            -160.00     4600.00
01981            -160.00     4400.00
01982            -160.00     4200.00
01983            -160.00     3800.00
01984            -160.00     3600.00
01985            -160.00     3400.00
01986            -160.00     3000.00
01987            -160.00     3000.00
01988            -120.00     2600.00
01989            -120.00     2400.00
01990            -120.00     2200.00
01991             -80.00     1800.00
01992            -120.00     1400.00
01993            -120.00     1200.00
01994             -40.00     1000.00
01995             -80.00      600.00
01996             -40.00      400.00
01997             -40.00      200.00
01998             -40.00        0.00
01999             -40.00     -400.00
02000              40.00     -400.00
02001             160.00     -800.00
02002             160.00    -1000.00
02003             120.00    -1200.00
02004              40.00    -1400.00
02005               0.00    -1800.00
02006             120.00    -2000.00
02007             440.00    -2200.00
02008            1160.00    -2600.00
02009             840.00    -3000.00
02010            -320.00    -3200.00
02011           -1120.00    -3400.00
02012           -1080.00    -3600.00
02013            -920.00    -3600.00
02014            -440.00    -3800.00
02015             560.00    -4600.00
02016             320.00    -4400.00
02017             520.00    -4600.00
02018             280.00    -5400.00
02019               0.00    -5000.00
02020             280.00    -5800.00
02021              40.00    -5800.00
02022             160.00    -6200.00
02023             160.00    -6400.00
02024               0.00    -6200.00
02025            -120.00    -7000.00
02026             -40.00    -6600.00
02027             160.00    -7200.00
02028             -40.00    -7400.00
02029             120.00    -7600.00
02030             160.00    -8000.00
02031             120.00    -7800.00
02032             120.00    -8400.00
02033             120.00    -8400.00
02034             160.00    -8600.00
02035              80.00    -9200.00
02036              80.00    -9200.00
02037             120.00    -9400.00
02038             120.00    -9800.00
02039              80.00    -9800.00
02040             160.00    -9800.00
02041             160.00   -10200.00
02042              80.00   -10400.00
02043             160.00   -10600.00
02044             160.00   -10800.00
02045             120.00   -11000.00
02046             120.00   -11000.00
02047             160.00   -11000.00
02048             120.00   -11400.00
02049             120.00   -11400.00
02050             160.00   -11600.00
02051             200.00   -11800.00
02052             120.00   -12200.00
02053             160.00   -12200.00
02054             160.00   -12200.00
02055             120.00   -12400.00
02056             160.00   -12600.00
02057             200.00   -12400.00
02058             200.00   -13000.00
02059             120.00   -13000.00
02060             160.00   -12800.00
02061             160.00   -13000.00
02062             200.00   -13200.00
02063             240.00   -13400.00
02064             200.00   -13200.00
02065             200.00   -13400.00
02066             160.00   -13600.00
02067             160.00   -13400.00
02068             200.00   -13600.00
02069             200.00   -13600.00
02070             280.00   -13800.00
02071             240.00   -13600.00
02072             200.00   -13800.00
02073             200.00   -13800.00
02074             200.00   -13800.00
02075             200.00   -14000.00
02076             200.00   -14000.00
02077             280.00   -14000.00
02078             280.00   -14000.00
02079             200.00   -14000.00
02080             280.00   -14200.00
02081             200.00   -14000.00
02082             240.00   -14000.00
02083             200.00   -14200.00
02084             320.00   -14000.00
02085             280.00   -14200.00
02086             200.00   -14200.00
02087             240.00   -14000.00
02088             280.00   -14000.00
02089             200.00   -14000.00
02090             280.00   -13800.00
02091             280.00   -14000.00
02092             240.00   -13800.00
02093             200.00   -13600.00
02094             200.00   -13800.00
02095             200.00   -13600.00
02096             200.00   -13600.00
02097             240.00   -13400.00
02098             280.00   -13400.00
02099             200.00   -13200.00
02100             200.00   -13200.00
02101             200.00   -13200.00
02102             240.00   -13200.00
02103             280.00   -13000.00
02104             240.00   -13000.00
02105             200.00   -12600.00
02106             200.00   -12600.00
02107             200.00   -12400.00
02108             200.00   -12400.00
02109             200.00   -12200.00
02110             240.00   -12200.00
02111             200.00   -11800.00
02112             200.00   -11800.00
02113             200.00   -11800.00
02114             200.00   -11400.00
02115             200.00   -11400.00
02116             200.00   -11400.00
02117             200.00   -11000.00
02118             200.00   -11000.00
02119             160.00   -10800.00
02120             160.00   -10600.00
02121             200.00   -10200.00
02122             200.00   -10200.00
02123             200.00   -10000.00
02124             200.00    -9800.00
02125             160.00    -9400.00
02126             160.00    -9400.00
02127             160.00    -9200.00
02128             160.00    -9000.00
02129             200.00    -8800.00
02130             160.00    -8600.00
02131             200.00    -8400.00
02132             160.00    -8200.00
02133             160.00    -8000.00
02134             160.00    -7600.00
02135             160.00    -7600.00
02136             160.00    -7200.00
02137             160.00    -7000.00
02138             160.00    -6800.00
02139             160.00    -6600.00
02140             160.00    -6400.00
02141             160.00    -6200.00
02142             160.00    -5800.00
02143             160.00    -5800.00
02144             160.00    -5400.00
02145             120.00    -5200.00
02146             160.00    -4800.00
02147             120.00    -4600.00
02148             120.00    -4400.00
02149             160.00    -4200.00
02150             120.00    -3800.00
02151             120.00    -3800.00
02152             120.00    -3400.00
02153             120.00    -3000.00
02154             120.00    -3000.00
02155             120.00    -2600.00
02156             120.00    -2200.00
02157             120.00    -2000.00
02158             120.00    -1800.00
02159              40.00    -1600.00
02160             120.00    -1200.00
02161              40.00     -800.00
02162              40.00     -800.00
02163              40.00     -600.00
02164              40.00     -400.00
02165              40.00        0.00
02166               0.00      200.00
02167             120.00      400.00
02168             200.00      600.00
02169             200.00     1000.00
02170             200.00     1200.00
02171             120.00     1400.00
02172             120.00     1800.00
02173             160.00     2000.00
02174             760.00     2200.00
02175            1440.00     2600.00
02176             640.00     2800.00
02177            -880.00     3000.00
02178           -1480.00     3000.00
02179           -1400.00     3600.00
02180            -840.00     4000.00
02181             640.00     4000.00
02182             520.00     4200.00
02183             480.00     5000.00
02184             200.00     4600.00
02185            -320.00     5200.00
02186             160.00     5600.00
02187            -120.00     5000.00
02188              40.00     6000.00
02189             200.00     5800.00
02190            -160.00     6200.00
02191            -160.00     6600.00
02192            -200.00     6600.00
02193              40.00     7400.00
02194            -120.00     6800.00
02195               0.00     7400.00
02196               0.00     7600.00
02197            -120.00     7800.00
02198             -40.00     8200.00
02199            -120.00     8200.00
02200               0.00     8600.00
02201            -200.00     8600.00
02202             -40.00     9000.00
02203            -120.00     9400.00
02204            -120.00     9400.00
02205            -160.00     9600.00
02206             -40.00     9800.00
02207               0.00    10000.00
02208            -160.00    10000.00
02209            -120.00    10600.00
02210            -160.00    10600.00
02211            -160.00    10600.00
02212            -160.00    11000.00
02213            -120.00    11000.00
02214            -200.00    11200.00
02215            -200.00    11400.00
02216            -160.00    11400.00
02217            -120.00    11800.00
02218            -160.00    12000.00
02219            -160.00    12000.00
02220            -200.00    12200.00
02221            -200.00    12400.00
02222            -200.00    12400.00
02223            -160.00    12400.00
02224            -200.00    12600.00
02225            -200.00    12600.00
02226            -200.00    13000.00
02227            -200.00    13000.00
02228            -200.00    13000.00
02229            -200.00    13200.00
02230            -200.00    13400.00
02231            -200.00    13200.00
02232            -280.00    13400.00
02233            -240.00    13400.00
02234            -200.00    13600.00
02235            -200.00    13600.00
02236            -200.00    13800.00
02237            -200.00    13800.00
02238            -240.00    13800.00
02239            -200.00    14000.00
02240            -240.00    13800.00
02241            -200.00    14000.00
02242            -200.00    14000.00
02243            -200.00    14000.00
02244            -280.00    14200.00
02245            -280.00    14000.00
02246            -280.00    14000.00
02247            -240.00    14200.00
02248            -200.00    14000.00
02249            -240.00    14000.00
02250            -200.00    14000.00
02251            -240.00    14000.00
02252            -280.00    14200.00
02253            -240.00    14200.00
02254            -280.00    14000.00
02255            -280.00    14000.00
02256            -240.00    14200.00
02257            -200.00    14000.00
02258            -280.00    13800.00
02259            -280.00    13800.00
02260            -240.00    13800.00
02261            -280.00    13800.00
02262            -240.00    13600.00
02263            -240.00    13800.00
02264            -200.00    13400.00
02265            -280.00    13400.00
02266            -200.00    13400.00
02267            -280.00    13400.00
02268            -280.00    13200.00
02269            -200.00    13200.00
02270            -240.00    13000.00
02271            -200.00    13000.00
02272            -240.00    13000.00
02273            -280.00    12600.00
02274            -280.00    12600.00
02275            -240.00    12400.00
02276            -200.00    12200.00
02277            -200.00    12200.00
02278            -200.00    12000.00
02279            -280.00    12000.00
02280            -200.00    11800.00
02281            -280.00    11600.00
02282            -240.00    11400.00
02283            -200.00    11200.00
02284            -200.00    11000.00
02285            -280.00    11000.00
02286            -240.00    10800.00
02287            -200.00    10600.00
02288            -200.00    10400.00
02289            -200.00    10200.00
02290            -200.00    10000.00
02291            -200.00     9800.00
02292            -200.00     9800.00
02293            -200.00     9400.00
02294            -200.00     9200.00
02295            -200.00     9200.00
02296            -200.00     8600.00
02297            -200.00     8600.00
02298            -200.00     8400.00
02299            -200.00     8200.00
02300            -200.00     8000.00
02301            -200.00     7800.00
02302            -200.00     7600.00
02303            -200.00     7400.00
02304            -200.00     7000.00
02305            -200.00     6800.00
02306            -200.00     6600.00
02307            -200.00     6200.00
02308            -200.00     6200.00
02309            -160.00     5800.00
02310            -200.00     5600.00
02311            -200.00     5400.00
02312            -160.00     5400.00
02313            -160.00     5000.00
02314            -200.00     4600.00
02315            -160.00     4600.00
02316            -160.00     4200.00
02317            -160.00     4000.00
02318            -160.00     3600.00
02319            -160.00     3400.00
02320            -160.00     3200.00
02321            -120.00     3000.00
02322            -120.00     2600.00
02323            -120.00     2200.00
02324             -80.00     2200.00
02325            -120.00     1800.00
02326             -40.00     1400.00
02327            -120.00     1400.00
02328             -80.00     1000.00
02329            -120.00      800.00
02330            -120.00      600.00
02331             -40.00      400.00
02332             -40.00        0.00
02333             -40.00     -200.00
02334               0.00     -400.00
02335             120.00     -600.00
02336             160.00     -800.00
02337             160.00    -1200.00
02338              40.00    -1400.00
02339               0.00    -1800.00
02340              40.00    -1800.00
02341             280.00    -2000.00
02342             920.00    -2400.00
02343            1120.00    -3000.00
02344             120.00    -3200.00
02345            -960.00    -3400.00
02346           -1120.00    -3600.00
02347            -960.00    -3600.00
02348            -720.00    -3600.00
02349             320.00    -4400.00
02350             480.00    -4600.00
02351             440.00    -4400.00
02352             440.00    -5400.00
02353             -40.00    -5000.00
02354             200.00    -5400.00
02355             160.00    -5800.00
02356              80.00    -5800.00
02357             200.00    -6400.00
02358              40.00    -6200.00
02359             -80.00    -7000.00
02360            -120.00    -6800.00
02361             120.00    -7000.00
02362               0.00    -7600.00
02363               0.00    -7400.00
02364             160.00    -7800.00
02365             120.00    -7800.00
02366              40.00    -8400.00
02367              80.00    -8600.00
02368             200.00    -8600.00
02369             120.00    -9000.00
02370              40.00    -9000.00
02371             120.00    -9400.00
02372             120.00    -9400.00
02373              40.00    -9800.00
02374             120.00    -9800.00
02375             160.00   -10000.00
02376             120.00   -10400.00
02377             160.00   -10600.00
02378             160.00   -10600.00
02379             120.00   -10800.00
02380             120.00   -11000.00
02381             160.00   -11200.00
02382             120.00   -11200.00
02383              80.00   -11400.00
02384             160.00   -11600.00
02385             200.00   -11600.00
02386             160.00   -12000.00
02387             160.00   -12200.00
02388             200.00   -12200.00
02389             160.00   -12400.00
02390             160.00   -12600.00
02391             200.00   -12600.00
02392             200.00   -12600.00
02393             160.00   -12800.00
02394             160.00   -13000.00
02395             160.00   -13000.00
02396             200.00   -13200.00
02397             200.00   -13200.00
02398             280.00   -13200.00
02399             200.00   -13400.00
02400             160.00   -13400.00
02401             160.00   -13400.00
02402             200.00   -13400.00
02403             200.00   -13600.00
02404             200.00   -13600.00
02405             280.00   -13800.00
02406             200.00   -13600.00
02407             200.00   -14000.00
02408             200.00   -13800.00
02409             200.00   -13800.00
02410             200.00   -14000.00
02411             280.00   -14000.00
02412             280.00   -14000.00
02413             160.00   -14000.00
02414             200.00   -14200.00
02415             200.00   -14000.00
02416             280.00   -14200.00
02417             280.00   -14200.00
02418             280.00   -14000.00
02419             280.00   -14000.00
02420             200.00   -14000.00
02421             200.00   -14000.00
02422             280.00   -13800.00
02423             240.00   -14000.00
02424             280.00   -14000.00
02425             280.00   -14000.00
02426             280.00   -14000.00
02427             200.00   -13800.00
02428             240.00   -13600.00
02429             240.00   -13600.00
02430             240.00   -13400.00
02431             200.00   -13600.00
02432             280.00   -13400.00
02433             200.00   -13400.00
02434             200.00   -13400.00
02435             240.00   -13200.00
02436             240.00   -13000.00
02437             200.00   -13000.00
02438             280.00   -12800.00
02439             240.00   -12600.00
02440             200.00   -12600.00
02441             200.00   -12600.00
02442             200.00   -12400.00
02443             200.00   -12200.00
02444             240.00   -12400.00
02445             200.00   -12000.00
02446             200.00   -12000.00
02447             240.00   -11800.00
02448             200.00   -11800.00
02449             200.00   -11400.00
02450             200.00   -11200.00
02451             240.00   -11200.00
02452             200.00   -11000.00
02453             200.00   -10800.00
02454             200.00   -10600.00
02455             200.00   -10600.00
02456             200.00   -10200.00
02457             200.00   -10000.00
02458             200.00   -10000.00
02459             160.00    -9800.00
02460             200.00    -9400.00
02461             200.00    -9400.00
02462             160.00    -9000.00
02463             200.00    -9000.00
02464             200.00    -8600.00
02465             200.00    -8400.00
02466             200.00    -8200.00
02467             200.00    -8200.00
02468             160.00    -7800.00
02469             160.00    -7600.00
02470             200.00    -7200.00
02471             160.00    -7000.00
02472             160.00    -7000.00
02473             160.00    -6800.00
02474             120.00    -6400.00
02475             160.00    -6200.00
02476             160.00    -6000.00
02477             160.00    -5800.00
02478             120.00    -5400.00
02479             160.00    -5400.00
02480             120.00    -5000.00
02481             120.00    -5000.00
02482             120.00    -4600.00
02483             160.00    -4200.00
02484             120.00    -4000.00
02485             120.00    -3800.00
02486             120.00    -3600.00
02487             120.00    -3400.00
02488              80.00    -3000.00
02489              80.00    -2800.00
02490              80.00    -2600.00
02491             120.00    -2200.00
02492              80.00    -2000.00
02493              40.00    -1800.00
02494              40.00    -1400.00
02495              40.00    -1200.00
02496             120.00     -800.00
02497              40.00     -600.00
02498              40.00     -400.00
02499              40.00     -200.00
02500              40.00      200.00
02501             120.00      400.00
02502             160.00      800.00
02503             280.00     1000.00
02504             200.00     1200.00
02505             160.00     1400.00
02506             120.00     1800.00
02507             120.00     1800.00
02508             440.00     2200.00
02509            1320.00     2600.00
02510            1080.00     2800.00
02511            -360.00     3000.00
02512           -1400.00     3000.00
02513           -1440.00     3400.00
02514           -1160.00     3800.00
02515             160.00     4200.00
02516             760.00     4000.00
02517             440.00     4600.00
02518             480.00     4600.00
02519            -200.00     4600.00
02520               0.00     6000.00
02521               0.00     5200.00
02522            -120.00     5800.00
02523             280.00     6000.00
02524             -40.00     5800.00
02525            -120.00     6800.00
02526            -280.00     6400.00
02527               0.00     7200.00
02528               0.00     7000.00
02529            -120.00     7000.00
02530              80.00     7800.00
02531            -120.00     7600.00
02532             -40.00     8200.00
02533            -120.00     8000.00
02534               0.00     8600.00
02535            -120.00     8600.00
02536            -120.00     8800.00
02537             -80.00     9200.00
02538            -160.00     9200.00
02539            -120.00     9800.00
02540            -120.00     9600.00
02541               0.00    10000.00
02542            -120.00    10000.00
02543            -120.00    10200.00
02544            -120.00    10600.00
02545            -120.00    10800.00
02546            -160.00    10800.00
02547            -120.00    10800.00
02548            -160.00    11200.00
02549            -200.00    11400.00
02550            -160.00    11600.00
02551            -160.00    11600.00
02552            -120.00    11800.00
02553            -160.00    12200.00
02554            -160.00    12200.00
02555            -200.00    12200.00
02556            -200.00    12400.00
02557            -200.00    12400.00
02558            -160.00    12600.00
02559            -200.00    12600.00
02560            -200.00    12600.00
02561            -200.00    12800.00
02562            -200.00    13000.00
02563            -200.00    13000.00
02564            -200.00    13200.00
02565            -200.00    13200.00
02566            -200.00    13400.00
02567            -200.00    13200.00
02568            -200.00    13600.00
02569            -240.00    13600.00
02570            -200.00    13800.00
02571            -200.00    13800.00
02572            -200.00    13800.00
02573            -200.00    13800.00
02574            -200.00    14000.00
02575            -280.00    14000.00
02576            -280.00    14000.00
02577            -200.00    14000.00
02578            -280.00    14200.00
02579            -200.00    14000.00
02580            -280.00    14000.00
02581            -200.00    14000.00
02582            -200.00    14200.00
02583            -280.00    14200.00
02584            -200.00    14200.00
02585            -200.00    14200.00
02586            -240.00    14000.00
02587            -280.00    14000.00
02588            -240.00    14200.00
02589            -280.00    14000.00
02590            -200.00    13800.00
02591            -240.00    14000.00
02592            -280.00    14000.00
02593            -200.00    14000.00
02594            -280.00    13800.00
02595            -280.00    13800.00
02596            -240.00    13800.00
02597            -240.00    13800.00
02598            -200.00    13600.00
02599            -240.00    13400.00
02600            -280.00    13400.00
02601            -280.00    13400.00
02602            -280.00    13200.00
02603            -240.00    13200.00
02604            -200.00    13000.00
02605            -200.00    13000.00
02606            -240.00    13000.00
02607            -280.00    13000.00
02608            -200.00    12600.00
02609            -280.00    12600.00
02610            -200.00    12200.00
02611            -240.00    12200.00
02612            -200.00    12000.00
02613            -280.00    11800.00
02614            -200.00    12000.00
02615            -200.00    11600.00
02616            -280.00    11400.00
02617            -280.00    11400.00
02618            -240.00    11000.00
02619            -280.00    11000.00
02620            -280.00    10800.00
02621            -200.00    10600.00
02622            -200.00    10400.00
02623            -200.00    10200.00
02624            -200.00    10200.00
02625            -200.00    10000.00
02626            -200.00     9600.00
02627            -200.00     9400.00
02628            -200.00     9400.00
02629            -200.00     9000.00
02630            -200.00     9000.00
02631            -200.00     8800.00
02632            -200.00     8400.00
02633            -200.00     8400.00
02634            -200.00     8200.00
02635            -200.00     7800.00
02636            -200.00     7600.00
02637            -200.00     7400.00
02638            -200.00     7200.00
02639            -200.00     7000.00
02640            -200.00     6600.00
02641            -200.00     6600.00
02642            -200.00     6000.00
02643            -200.00     6000.00
02644            -200.00     5800.00
02645            -160.00     5400.00
02646            -160.00     5400.00
02647            -160.00     5000.00
02648            -160.00     4800.00
02649            -160.00     4600.00
02650            -160.00     4400.00
02651            -120.00     4200.00
02652            -160.00     3800.00
02653            -160.00     3400.00
02654            -160.00     3400.00
02655            -160.00     3000.00
02656            -120.00     3000.00
02657            -120.00     2600.00
02658            -120.00     2200.00
02659            -120.00     2000.00
02660            -120.00     1800.00
02661             -40.00     1400.00
02662             -40.00     1200.00
02663            -120.00     1000.00
02664             -40.00      800.00
02665             -80.00      400.00
02666             -80.00      200.00
02667             -40.00        0.00
02668             -40.00     -200.00
02669              40.00     -600.00
02670             160.00     -800.00
02671             160.00    -1000.00
02672              40.00    -1200.00
02673              40.00    -1600.00
02674              40.00    -1800.00
02675             160.00    -2000.00
02676             640.00    -2200.00
02677            1240.00    -2800.00
02678             520.00    -3000.00
02679            -640.00    -3200.00
02680           -1160.00    -3600.00
02681           -1000.00    -3400.00
02682            -920.00    -3600.00
02683            -120.00    -4000.00
02684             600.00    -4600.00
02685             320.00    -4200.00
02686             480.00    -5000.00
02687             120.00    -5400.00
02688              40.00    -5000.00
02689             280.00    -6000.00
02690              40.00    -5600.00
02691             200.00    -6400.00
02692             120.00    -6200.00
02693               0.00    -6200.00
02694            -160.00    -7000.00
02695              40.00    -6800.00
02696             120.00    -7400.00
02697             -40.00    -7200.00
02698             160.00    -7800.00
02699             160.00    -7800.00
02700              80.00    -8000.00
02701              40.00    -8600.00
02702             160.00    -8400.00
02703             120.00    -9000.00
02704              40.00    -9000.00
02705             120.00    -9200.00
02706             120.00    -9400.00
02707             120.00    -9400.00
02708              80.00   -10000.00
02709             160.00    -9800.00
02710             120.00   -10200.00
02711             120.00   -10400.00
02712             160.00   -10600.00
02713             160.00   -10800.00
02714             120.00   -11000.00
02715             160.00   -11000.00
02716             160.00   -11400.00
02717             120.00   -11400.00
02718             160.00   -11600.00
02719             200.00   -11600.00
02720             160.00   -11800.00
02721             160.00   -12000.00
02722             160.00   -12200.00
02723             160.00   -12200.00
02724             160.00   -12400.00
02725             160.00   -12600.00
02726             200.00   -12600.00
02727             160.00   -12600.00
02728             160.00   -13000.00
02729             160.00   -13000.00
02730             160.00   -13000.00
02731             200.00   -13200.00
02732             280.00   -13200.00
02733             200.00   -13400.00
02734             160.00   -13400.00
02735             160.00   -13400.00
02736             200.00   -13400.00
02737             200.00   -13600.00
02738             280.00   -13800.00
02739             280.00   -13600.00
02740             200.00   -13800.00
02741             160.00   -13800.00
02742             200.00   -13600.00
02743             200.00   -14000.00
02744             240.00   -14000.00
02745             240.00   -14000.00
02746             200.00   -14000.00
02747             200.00   -14000.00
02748             240.00   -14200.00
02749             200.00   -14000.00
02750             200.00   -14200.00
02751             240.00   -14200.00
02752             240.00   -14200.00
02753             280.00   -14000.00
02754             200.00   -14000.00
02755             200.00   -14200.00
02756             200.00   -14000.00
02757             280.00   -14000.00
02758             200.00   -14000.00
02759             280.00   -14000.00
02760             280.00   -14000.00
02761             200.00   -13800.00
02762             200.00   -13600.00
02763             240.00   -13800.00
02764             200.00   -13400.00
02765             280.00   -13600.00
02766             280.00   -13400.00
02767             280.00   -13400.00
02768             200.00   -13400.00
02769             200.00   -13200.00
02770             200.00   -13200.00
02771             280.00   -13000.00
02772             200.00   -13000.00
02773             200.00   -12800.00
02774             240.00   -12600.00
02775             200.00   -12600.00
02776             280.00   -12400.00
02777             280.00   -12400.00
02778             200.00   -12200.00
02779             240.00   -12200.00
02780             240.00   -12000.00
02781             200.00   -12000.00
02782             200.00   -11600.00
02783             200.00   -11600.00
02784             200.00   -11400.00
02785             280.00   -11200.00
02786             280.00   -11000.00
02787             200.00   -10800.00
02788             200.00   -10600.00
02789             200.00   -10400.00
02790             200.00   -10200.00
02791             200.00   -10000.00
02792             200.00    -9800.00
02793             200.00    -9800.00
02794             200.00    -9400.00
02795             160.00    -9200.00
02796             160.00    -9200.00
02797             160.00    -9000.00
02798             200.00    -8600.00
02799             200.00    -8600.00
02800             200.00    -8400.00
02801             160.00    -8200.00
02802             160.00    -8000.00
02803             160.00    -7800.00
02804             160.00    -7400.00
02805             160.00    -7200.00
02806             160.00    -7000.00
02807             160.00    -6800.00
02808             160.00    -6600.00
02809             120.00    -6200.00
02810             160.00    -6000.00
02811             160.00    -5800.00
02812             120.00    -5800.00
02813             160.00    -5400.00
02814             120.00    -5200.00
02815             120.00    -4800.00
02816             120.00    -4600.00
02817             120.00    -4400.00
02818             120.00    -4200.00
02819             120.00    -3800.00
02820             120.00    -3600.00
02821             120.00    -3400.00
02822              80.00    -3000.00
02823              40.00    -2800.00
02824             120.00    -2600.00
02825              40.00    -2200.00
02826             120.00    -2200.00
02827              40.00    -1800.00
02828              40.00    -1600.00
02829              40.00    -1400.00
02830              80.00     -800.00
02831              40.00     -800.00
02832              40.00     -400.00
02833              40.00     -400.00
02834              40.00        0.00
02835              40.00      400.00
02836             120.00      600.00
02837             240.00      600.00
02838             240.00     1000.00
02839             160.00     1200.00
02840             120.00     1400.00
02841             120.00     1800.00
02842             280.00     2000.00
02843            1080.00     2400.00
02844            1400.00     2600.00
02845             240.00     2800.00
02846           -1160.00     3000.00
02847           -1480.00     3200.00
02848           -1320.00     3800.00
02849            -480.00     4000.00
02850             760.00     4000.00
02851             440.00     4200.00
02852             520.00     4600.00
02853              40.00     4400.00
02854            -200.00     5400.00
02855             200.00     5400.00
02856            -200.00     5200.00
02857             160.00     6200.00
02858             120.00     5800.00
02859            -120.00     6600.00
02860            -200.00     6600.00
02861            -160.00     6800.00
02862              40.00     7400.00
02863            -120.00     6800.00
02864               0.00     7800.00
02865             -40.00     7600.00
02866             -40.00     8200.00
02867            -120.00     8200.00
02868             -40.00     8400.00
02869             -40.00     8600.00
02870            -120.00     8600.00
02871             -40.00     9200.00
02872            -160.00     9200.00
02873            -120.00     9400.00
02874            -200.00     9600.00
02875               0.00     9800.00
02876            -120.00    10000.00
02877            -120.00    10200.00
02878            -160.00    10400.00
02879            -160.00    10600.00
02880            -160.00    10800.00
02881            -200.00    10800.00
02882            -160.00    11000.00
02883            -200.00    11000.00
02884            -200.00    11400.00
02885            -160.00    11800.00
02886            -160.00    11600.00
02887            -200.00    11600.00
02888            -160.00    12000.00
02889            -240.00    12200.00
02890            -200.00    12200.00
02891            -200.00    12400.00
02892            -160.00    12400.00
02893            -200.00    12600.00
02894            -200.00    12800.00
02895            -200.00    12800.00
02896            -280.00    13000.00
02897            -200.00    13200.00
02898            -160.00    13200.00
02899            -200.00    13400.00
02900            -200.00    13400.00
02901            -200.00    13400.00
02902            -240.00    13400.00
02903            -240.00    13800.00
02904            -200.00    13600.00
02905            -200.00    13800.00
02906            -200.00    13800.00
02907            -240.00    14000.00
02908            -200.00    14000.00
02909            -240.00    14000.00
02910            -280.00    14000.00
02911            -200.00    14200.00
02912            -200.00    14000.00
02913            -200.00    14000.00
02914            -280.00    14000.00
02915            -280.00    14200.00
02916            -240.00    14200.00
02917            -280.00    14200.00
02918            -200.00    14000.00
02919            -200.00    14200.00
02920            -240.00    14200.00
02921            -200.00    14000.00
02922            -280.00    14200.00
02923            -280.00    14000.00
02924            -280.00    14000.00
02925            -200.00    14000.00
02926            -200.00    14000.00
02927            -280.00    14000.00
02928            -280.00    13800.00
02929            -280.00    13800.00
02930            -280.00    13800.00
02931            -200.00    13800.00
02932            -280.00    13600.00
02933            -240.00    13600.00
02934            -280.00    13400.00
02935            -280.00    13200.00
02936            -280.00    13200.00
02937            -240.00    13200.00
02938            -200.00    13000.00
02939            -200.00    13200.00
02940            -240.00    13000.00
02941            -280.00    12600.00
02942            -240.00    12600.00
02943            -280.00    12400.00
02944            -240.00    12400.00
02945            -200.00    12200.00
02946            -280.00    12200.00
02947            -280.00    12000.00
02948            -240.00    12000.00
02949            -280.00    11600.00
02950            -240.00    11600.00
02951            -280.00    11400.00
02952            -200.00    11400.00
02953            -280.00    11000.00
02954            -280.00    10800.00
02955            -280.00    10600.00
02956            -200.00    10600.00
02957            -200.00    10400.00
02958            -280.00    10200.00
02959            -200.00     9800.00
02960            -200.00     9800.00
02961            -200.00     9600.00
02962            -240.00     9400.00
02963            -200.00     9400.00
02964            -200.00     9000.00
02965            -200.00     8600.00
02966            -200.00     8600.00
02967            -200.00     8200.00
02968            -200.00     8200.00
02969            -200.00     7800.00
02970            -200.00     7800.00
02971            -160.00     7400.00
02972            -200.00     7400.00
02973            -200.00     7000.00
02974            -200.00     6800.00
02975            -200.00     6600.00
02976            -200.00     6200.00
02977            -160.00     6000.00
02978            -160.00     5800.00
02979            -160.00     5600.00
02980            -160.00     5400.00
02981            -160.00     5000.00
02982            -160.00     4800.00
02983            -160.00     4600.00
02984            -160.00     4200.00
02985            -160.00     4200.00
02986            -160.00     3800.00
02987            -160.00     3600.00
02988            -120.00     3400.00
02989            -120.00     3000.00
02990            -120.00     2800.00
02991            -120.00     2600.00
02992            -120.00     2200.00
02993             -80.00     2000.00
02994            -120.00     1800.00
02995            -120.00     1600.00
02996             -40.00     1200.00
02997            -120.00     1200.00
02998            -120.00      600.00
02999             -40.00      400.00
03000             -40.00      200.00
03001             -40.00     -200.00
03002             -40.00     -200.00
03003              40.00     -400.00
03004             160.00     -600.00
03005             160.00     -800.00
03006             120.00    -1200.00
03007              40.00    -1600.00
03008               0.00    -1800.00
03009              40.00    -1800.00
03010             360.00    -2200.00
03011            1080.00    -2600.00
03012             960.00    -3000.00
03013            -200.00    -3000.00
03014           -1080.00    -3400.00
03015           -1040.00    -3600.00
03016            -960.00    -3600.00
03017            -520.00    -3800.00
03018             480.00    -4600.00
03019             360.00    -4600.00
03020             440.00    -4600.00
03021             320.00    -5400.00
03022             -40.00    -5000.00
03023             280.00    -5800.00
03024             120.00    -5800.00
03025             120.00    -6000.00
03026             160.00    -6600.00
03027               0.00    -6200.00
03028            -120.00    -7200.00
03029             -40.00    -6800.00
03030             160.00    -7200.00
03031               0.00    -7600.00
03032              80.00    -7600.00
03033             160.00    -8000.00
03034             120.00    -7800.00
03035              40.00    -8600.00
03036             120.00    -8400.00
03037             160.00    -8600.00
03038              80.00    -9200.00
03039              40.00    -9200.00
03040             120.00    -9400.00
03041             120.00    -9400.00
03042             120.00    -9800.00
03043             160.00   -10000.00
03044             160.00   -10000.00
03045             120.00   -10600.00
03046             160.00   -10600.00
03047             160.00   -10600.00
03048             160.00   -10800.00
03049             120.00   -11000.00
03050             160.00   -11200.00
03051             120.00   -11400.00
03052             120.00   -11600.00
03053             200.00   -11600.00
03054             200.00   -11800.00
03055             160.00   -11800.00
03056             160.00   -12200.00
03057             160.00   -12200.00
03058             160.00   -12200.00
03059             160.00   -12400.00
03060             200.00   -12600.00
03061             160.00   -12600.00
03062             160.00   -12800.00
03063             200.00   -13000.00
03064             200.00   -13000.00
03065             200.00   -13000.00
03066             240.00   -13200.00
03067             240.00   -13200.00
03068             200.00   -13400.00
03069             200.00   -13400.00
03070             200.00   -13600.00
03071             200.00   -13600.00
03072             200.00   -13600.00
03073             240.00   -13800.00
03074             280.00   -13800.00
03075             200.00   -13800.00
03076             200.00   -14000.00
03077             240.00   -14000.00
03078             200.00   -14000.00
03079             200.00   -14000.00
03080             240.00   -14000.00
03081             160.00   -14200.00
03082             200.00   -14000.00
03083             200.00   -14200.00
03084             200.00   -14000.00
03085             200.00   -14000.00
03086             280.00   -14200.00
03087             280.00   -14200.00
03088             240.00   -14000.00
03089             200.00   -14000.00
03090             200.00   -14200.00
03091             280.00   -14000.00
03092             240.00   -14000.00
03093             200.00   -13800.00
03094             280.00   -13800.00
03095             200.00   -13600.00
03096             240.00   -13800.00
03097             240.00   -13600.00
03098             200.00   -13800.00
03099             240.00   -13400.00
03100             280.00   -13400.00
03101             280.00   -13400.00
03102             240.00   -13400.00
03103             200.00   -13200.00
03104             200.00   -13200.00
03105             280.00   -13200.00
03106             280.00   -13000.00
03107             280.00   -12800.00
03108             280.00   -12800.00
03109             200.00   -12600.00
03110             200.00   -12400.00
03111             200.00   -12400.00
03112             240.00   -12200.00
03113             240.00   -12200.00
03114             280.00   -12000.00
03115             200.00   -11800.00
03116             200.00   -11800.00
03117             240.00   -11600.00
03118             200.00   -11200.00
03119             280.00   -11200.00
03120             240.00   -11000.00
03121             240.00   -11000.00
03122             200.00   -10800.00
03123             200.00   -10600.00
03124             200.00   -10200.00
03125             200.00   -10000.00
03126             200.00   -10000.00
03127             200.00    -9800.00
03128             200.00    -9800.00
03129             200.00    -9400.00
03130             200.00    -9200.00
03131             200.00    -9000.00
03132             200.00    -8600.00
03133             200.00    -8800.00
03134             200.00    -8400.00
03135             200.00    -8200.00
03136             160.00    -8200.00
03137             200.00    -7600.00
03138             160.00    -7800.00
03139             200.00    -7400.00
03140             160.00    -7000.00
03141             160.00    -7000.00
03142             120.00    -6600.00
03143             120.00    -6600.00
03144             160.00    -6200.00
03145             160.00    -6000.00
03146             160.00    -5800.00
03147             160.00    -5400.00
03148             160.00    -5200.00
03149             120.00    -5000.00
03150             120.00    -4800.00
03151             120.00    -4400.00
03152             120.00    -4200.00
03153             120.00    -4000.00
03154             120.00    -3800.00
03155             120.00    -3400.00
03156             120.00    -3400.00
03157             120.00    -3000.00
03158              80.00    -2600.00
03159             120.00    -2600.00
03160              40.00    -2200.00
03161              80.00    -2000.00
03162              40.00    -1600.00
03163              40.00    -1400.00
03164              40.00    -1200.00
03165              40.00     -800.00
03166              40.00     -600.00
03167              40.00     -200.00
03168              80.00        0.00
03169              40.00      200.00
03170             120.00      400.00
03171             200.00      600.00
03172             280.00     1000.00
03173             240.00     1200.00
03174             120.00     1400.00
03175             120.00     1600.00
03176             200.00     1800.00
03177             640.00     2200.00
03178            1440.00     2800.00
03179             800.00     2800.00
03180            -680.00     3000.00
03181           -1480.00     3400.00
03182           -1320.00     3600.00
03183            -960.00     4200.00
03184             520.00     4000.00
03185             600.00     4000.00
03186             440.00     4800.00
03187             320.00     4600.00
03188            -280.00     5000.00
03189             160.00     5800.00
03190             -40.00     5200.00
03191               0.00     6000.00
03192             280.00     5800.00
03193            -120.00     6200.00
03194            -160.00     6800.00
03195            -240.00     6400.00
03196              40.00     7400.00
03197            -120.00     6800.00
03198             -40.00     7600.00
03199               0.00     7800.00
03200            -120.00     7600.00
03201             -40.00     8200.00
03202             -80.00     8200.00
03203               0.00     8600.00
03204            -160.00     8600.00
03205             -40.00     9000.00
03206            -120.00     9200.00
03207            -160.00     9400.00
03208            -160.00     9800.00
03209            -120.00     9800.00
03210             -40.00    10000.00
03211            -160.00    10000.00
03212            -120.00    10200.00
03213            -160.00    10600.00
03214            -160.00    10800.00
03215            -160.00    10800.00
03216            -160.00    11000.00
03217            -200.00    11200.00
03218            -200.00    11400.00
03219            -200.00    11600.00
03220            -160.00    11600.00
03221            -160.00    12000.00
03222            -160.00    12000.00
03223            -200.00    12200.00
03224            -240.00    12200.00
03225            -200.00    12400.00
03226            -200.00    12600.00
03227            -200.00    12600.00
03228            -200.00    12600.00
03229            -240.00    12600.00
03230            -200.00    13000.00
03231            -200.00    13000.00
03232            -200.00    13200.00
03233            -200.00    13200.00
03234            -200.00    13200.00
03235            -240.00    13400.00
03236            -200.00    13400.00
03237            -200.00    13800.00
03238            -200.00    13600.00
03239            -200.00    13800.00
03240            -200.00    13800.00
03241            -200.00    13800.00
03242            -200.00    14000.00
03243            -240.00    14000.00
03244            -240.00    14000.00
03245            -200.00    14000.00
03246            -200.00    14000.00
03247            -240.00    14200.00
03248            -280.00    14000.00
03249            -280.00    14200.00
03250            -240.00    14200.00
03251            -240.00    14000.00
03252            -200.00    14200.00
03253            -200.00    14200.00
03254            -200.00    14200.00
03255            -280.00    14200.00
03256            -280.00    14000.00
03257            -280.00    14000.00
03258            -280.00    14000.00
03259            -200.00    14000.00
03260            -200.00    14200.00
03261            -240.00    14000.00
03262            -280.00    13800.00
03263            -200.00    13800.00
03264            -280.00    13800.00
03265            -280.00    13800.00
03266            -200.00    13800.00
03267            -200.00    13400.00
03268            -240.00    13400.00
03269            -280.00    13400.00
03270            -280.00    13200.00
03271            -280.00    13200.00
03272            -240.00    13000.00
03273            -240.00    13000.00
03274            -200.00    13000.00
03275            -280.00    12800.00
03276            -280.00    12600.00
03277            -280.00    12600.00
03278            -280.00    12200.00
03279            -200.00    12200.00
03280            -240.00    12200.00
03281            -280.00    12000.00
03282            -280.00    11800.00
03283            -280.00    11800.00
03284            -280.00    11600.00
03285            -240.00    11400.00
03286            -200.00    11200.00
03287            -280.00    11000.00
03288            -200.00    11000.00
03289            -280.00    10800.00
03290            -280.00    10600.00
03291            -200.00    10200.00
03292            -200.00    10200.00
03293            -200.00    10000.00
03294            -200.00     9800.00
03295            -200.00     9800.00
03296            -200.00     9400.00
03297            -240.00     9200.00
03298            -200.00     9200.00
03299            -200.00     8800.00
03300            -200.00     8600.00
03301            -200.00     8400.00
03302            -200.00     8200.00
03303            -200.00     8200.00
03304            -200.00     7800.00
03305            -200.00     7600.00
03306            -200.00     7400.00
03307            -200.00     7000.00
03308            -200.00     6800.00
03309            -160.00     6600.00
03310            -200.00     6400.00
03311            -160.00     6200.00
03312            -160.00     6000.00
03313            -200.00     5800.00
03314            -160.00     5400.00
03315            -160.00     5200.00
03316            -160.00     5000.00
03317            -160.00     4800.00
03318            -160.00     4600.00
03319            -160.00     4200.00
03320            -120.00     4000.00
03321            -160.00     3800.00
03322            -160.00     3400.00
03323            -160.00     3200.00
03324            -120.00     3000.00
03325            -120.00     2800.00
03326             -80.00     2200.00
03327            -120.00     2200.00
03328            -120.00     2000.00
03329            -120.00     1400.00
03330            -120.00     1200.00
03331             -80.00     1000.00
03332             -80.00     1000.00
03333            -120.00      600.00
03334             -40.00      400.00
03335             -80.00      200.00
03336             -40.00     -200.00
03337               0.00     -200.00
03338             120.00     -600.00
03339             160.00     -800.00
03340             160.00    -1200.00
03341              40.00    -1400.00
03342               0.00    -1600.00
03343              40.00    -1800.00
03344             200.00    -2000.00
03345             840.00    -2400.00
03346            1160.00    -3000.00
03347             200.00    -3000.00
03348            -920.00    -3400.00
03349           -1120.00    -3600.00
03350            -960.00    -3600.00
03351            -800.00    -3600.00
03352             200.00    -4200.00
03353             480.00    -4600.00
03354             360.00    -4400.00
03355             440.00    -5200.00
03356               0.00    -5200.00
03357             160.00    -5400.00
03358             200.00    -5800.00
03359              40.00    -6000.00
03360             160.00    -6400.00
03361              40.00    -6000.00
03362             -40.00    -7000.00
03363            -120.00    -7000.00
03364             120.00    -6800.00
03365              40.00    -7600.00
03366               0.00    -7400.00
03367             160.00    -8000.00
03368             120.00    -7800.00
03369              80.00    -8400.00
03370             120.00    -8600.00
03371             160.00    -8400.00
03372             120.00    -9000.00
03373              80.00    -9200.00
03374             120.00    -9200.00
03375             120.00    -9400.00
03376              80.00    -9800.00
03377             120.00    -9800.00
03378             160.00   -10000.00
03379             120.00   -10400.00
03380             160.00   -10600.00
03381             200.00   -10600.00
03382             160.00   -10800.00
03383             120.00   -11000.00
03384             160.00   -11000.00
03385             120.00   -11000.00
03386             120.00   -11400.00
03387             160.00   -11600.00
03388             200.00   -11800.00
03389             160.00   -12000.00
03390             160.00   -12200.00
03391             200.00   -12200.00
03392             160.00   -12200.00
03393             160.00   -12600.00
03394             200.00   -12400.00
03395             200.00   -12600.00
03396             160.00   -13000.00
03397             160.00   -12800.00
03398             200.00   -13000.00
03399             160.00   -13000.00
03400             200.00   -13200.00
03401             240.00   -13200.00
03402             200.00   -13400.00
03403             160.00   -13400.00
03404             200.00   -13400.00
03405             160.00   -13400.00
03406             160.00   -13600.00
03407             200.00   -13800.00
03408             280.00   -13800.00
03409             200.00   -13800.00
03410             200.00   -14000.00
03411             200.00   -13800.00
03412             200.00   -14000.00
03413             200.00   -14000.00
03414             240.00   -14000.00
03415             280.00   -14000.00
03416             200.00   -14000.00
03417             200.00   -14200.00
03418             200.00   -14200.00
03419             200.00   -14000.00
03420             200.00   -14000.00
03421             280.00   -14000.00
03422             240.00   -14000.00
03423             200.00   -14000.00
03424             200.00   -14000.00
03425             200.00   -14200.00
03426             200.00   -14000.00
03427             280.00   -14000.00
03428             280.00   -13800.00
03429             280.00   -14000.00
03430             240.00   -13600.00
03431             280.00   -13800.00
03432             240.00   -13800.00
03433             280.00   -13600.00
03434             240.00   -13400.00
03435             280.00   -13400.00
03436             240.00   -13400.00
03437             280.00   -13200.00
03438             280.00   -13200.00
03439             200.00   -13200.00
03440             280.00   -13000.00
03441             280.00   -13000.00
03442             240.00   -12800.00
03443             240.00   -12800.00
03444             200.00   -12600.00
03445             280.00   -12400.00
03446             280.00   -12200.00
03447             280.00   -12200.00
03448             240.00   -12200.00
03449             200.00   -11800.00
03450             240.00   -11800.00
03451             240.00   -11600.00
03452             200.00   -11400.00
03453             240.00   -11200.00
03454             200.00   -11200.00
03455             240.00   -11000.00
03456             200.00   -10800.00
03457             200.00   -10800.00
03458             200.00   -10600.00
03459             200.00   -10200.00
03460             280.00   -10000.00
03461             200.00    -9800.00
03462             200.00    -9600.00
03463             200.00    -9600.00
03464             160.00    -9200.00
03465             160.00    -9200.00
03466             200.00    -9000.00
03467             160.00    -8800.00
03468             200.00    -8400.00
03469             160.00    -8400.00
03470             160.00    -8200.00
03471             160.00    -8000.00
03472             160.00    -7600.00
03473             160.00    -7400.00
03474             160.00    -7200.00
03475             160.00    -7000.00
03476             160.00    -6800.00
03477             120.00    -6600.00
03478             160.00    -6200.00
03479             120.00    -6000.00
03480             160.00    -5800.00
03481             120.00    -5400.00
03482             120.00    -5400.00
03483             120.00    -5200.00
03484             120.00    -4800.00
03485             120.00    -4600.00
03486             120.00    -4400.00
03487             120.00    -4200.00
03488             160.00    -3800.00
03489             120.00    -3600.00
03490             120.00    -3400.00
03491              40.00    -3000.00
03492             120.00    -2800.00
03493              80.00    -2600.00
03494             120.00    -2200.00
03495              80.00    -2200.00
03496              80.00    -1800.00
03497              40.00    -1400.00
03498              40.00    -1200.00
03499              80.00     -800.00
03500             120.00     -600.00
03501             120.00     -400.00
03502             120.00     -200.00
03503              40.00      200.00
03504              40.00      400.00
03505             160.00      600.00
03506             280.00      800.00
03507             280.00     1200.00
03508             200.00     1400.00
03509             120.00     1600.00
03510             160.00     2000.00
03511             440.00     2200.00
03512            1280.00     2600.00
03513            1240.00     2800.00
03514            -200.00     3000.00
03515           -1320.00     3200.00
03516           -1440.00     3400.00
03517           -1240.00     3800.00
03518               0.00     4200.00
03519             760.00     4000.00
03520             360.00     4400.00
03521             480.00     4600.00
03522            -160.00     4600.00
03523             -40.00     5800.00
03524             120.00     5200.00
03525            -160.00     5600.00
03526             280.00     6000.00
03527               0.00     6000.00
03528            -160.00     6800.00
03529            -240.00     6400.00
03530             -40.00     7000.00
03531               0.00     7000.00
03532            -160.00     7000.00
03533              40.00     7800.00
03534            -120.00     7400.00
03535             -40.00     8200.00
03536            -120.00     7800.00
03537               0.00     8400.00
03538            -160.00     8600.00
03539            -120.00     8600.00
03540             -80.00     9200.00
03541            -160.00     9200.00
03542            -120.00     9600.00
03543            -160.00     9600.00
03544               0.00     9800.00
03545            -160.00    10000.00
03546            -120.00    10200.00
03547            -160.00    10600.00
03548            -160.00    10800.00
03549            -160.00    10600.00
03550            -160.00    11000.00
03551            -120.00    11000.00
03552            -200.00    11000.00
03553            -200.00    11600.00
03554            -160.00    11600.00
03555            -160.00    11600.00
03556            -160.00    12000.00
03557            -160.00    12200.00
03558            -200.00    12200.00
03559            -200.00    12400.00
03560            -160.00    12400.00
03561            -160.00    12600.00
03562            -200.00    12600.00
03563            -240.00    12600.00
03564            -200.00    13000.00
03565            -200.00    13200.00
03566            -200.00    13200.00
03567            -200.00    13200.00
03568            -200.00    13400.00
03569            -280.00    13200.00
03570            -200.00    13800.00
03571            -200.00    13400.00
03572            -240.00    13600.00
03573            -200.00    13600.00
03574            -160.00    13800.00
03575            -200.00    13800.00
03576            -200.00    13800.00
03577            -200.00    14000.00
03578            -240.00    14000.00
03579            -200.00    14000.00
03580            -200.00    14000.00
03581            -200.00    14200.00
03582            -240.00    14200.00
03583            -280.00    14200.00
03584            -200.00    14200.00
03585            -280.00    14200.00
03586            -280.00    14000.00
03587            -200.00    14200.00
03588            -200.00    14000.00
03589            -240.00    14200.00
03590            -240.00    14000.00
03591            -280.00    14000.00
03592            -240.00    14000.00
03593            -280.00    14000.00
03594            -200.00    14000.00
03595            -200.00    14000.00
03596            -240.00    13800.00
03597            -280.00    13800.00
03598            -320.00    13800.00
03599            -280.00    13800.00
03600            -240.00    13600.00
03601            -280.00    13600.00
03602            -240.00    13400.00
03603            -280.00    13400.00
03604            -280.00    13400.00
03605            -280.00    13200.00
03606            -280.00    13200.00
03607            -280.00    13000.00
03608            -200.00    13000.00
03609            -280.00    13000.00
03610            -280.00    12600.00
03611            -240.00    12600.00
03612            -240.00    12600.00
03613            -200.00    12400.00
03614            -200.00    12200.00
03615            -240.00    12200.00
03616            -200.00    11800.00
03617            -280.00    11800.00
03618            -280.00    11600.00
03619            -280.00    11400.00
03620            -200.00    11400.00
03621            -200.00    11000.00
03622            -200.00    11000.00
03623            -280.00    10800.00
03624            -240.00    10800.00
03625            -200.00    10400.00
03626            -200.00    10200.00
03627            -200.00    10200.00
03628            -200.00    10000.00
03629            -200.00     9800.00
03630            -200.00     9600.00
03631            -200.00     9400.00
03632            -200.00     9200.00
03633            -200.00     9000.00
03634            -200.00     8600.00
03635            -200.00     8600.00
03636            -200.00     8200.00
03637            -200.00     8200.00
03638            -200.00     7800.00
03639            -200.00     7800.00
03640            -160.00     7400.00
03641            -160.00     7200.00
03642            -160.00     7000.00
03643            -200.00     6800.00
03644            -160.00     6600.00
03645            -160.00     6200.00
03646            -200.00     6000.00
03647            -160.00     5800.00
03648            -160.00     5600.00
03649            -160.00     5400.00
03650            -160.00     5000.00
03651            -160.00     5000.00
03652            -120.00     4600.00
03653            -160.00     4400.00
03654            -120.00     4200.00
03655            -120.00     3800.00
03656            -160.00     3600.00
03657            -160.00     3000.00
03658            -120.00     3200.00
03659            -120.00     2800.00
03660            -120.00     2600.00
03661            -120.00     2200.00
03662            -120.00     2000.00
03663            -120.00     1800.00
03664            -120.00     1400.00
03665             -40.00     1200.00
03666             -80.00     1000.00
03667            -120.00      600.00
03668             -40.00      400.00
03669             -80.00      200.00
03670             -40.00     -200.00
03671             -40.00     -400.00
03672               0.00     -400.00
03673             120.00     -800.00
03674             160.00    -1000.00
03675              40.00    -1400.00
03676               0.00    -1400.00
03677               0.00    -1800.00
03678             120.00    -2000.00
03679             600.00    -2200.00
03680            1160.00    -2800.00
03681             640.00    -3000.00
03682            -560.00    -3400.00
03683           -1160.00    -3400.00
03684           -1000.00    -3600.00
03685            -960.00    -3600.00
03686            -200.00    -4000.00
03687             600.00    -4600.00
03688             360.00    -4400.00
03689             480.00    -5000.00
03690             120.00    -5200.00
03691               0.00    -5000.00
03692             280.00    -5800.00
03693              40.00    -5600.00
03694             160.00    -6200.00
03695             120.00    -6400.00
03696               0.00    -6400.00
03697            -160.00    -7000.00
03698               0.00    -6600.00
03699             120.00    -7400.00
03700               0.00    -7200.00
03701             120.00    -7800.00
03702             160.00    -7800.00
03703             120.00    -8200.00
03704              40.00    -8600.00
03705             160.00    -8400.00
03706             120.00    -8800.00
03707             120.00    -9200.00
03708             120.00    -9000.00
03709             120.00    -9200.00
03710             120.00    -9600.00
03711             120.00    -9800.00
03712             200.00   -10000.00
03713             120.00   -10200.00
03714             120.00   -10400.00
03715             160.00   -10600.00
03716             160.00   -10600.00
03717             120.00   -11000.00
03718             160.00   -11000.00
03719             160.00   -11000.00
03720             120.00   -11400.00
03721             160.00   -11600.00
03722             160.00   -11600.00
03723             200.00   -11800.00
03724             120.00   -12200.00
03725             160.00   -12000.00
03726             160.00   -12200.00
03727             160.00   -12400.00
03728             200.00   -12600.00
03729             200.00   -12600.00
03730             160.00   -12800.00
03731             160.00   -13000.00
03732             160.00   -13000.00
03733             200.00   -13000.00
03734             160.00   -13200.00
03735             200.00   -13400.00
03736             200.00   -13400.00
03737             160.00   -13400.00
03738             160.00   -13400.00
03739             160.00   -13600.00
03740             200.00   -13600.00
03741             200.00   -13800.00
03742             280.00   -13600.00
03743             200.00   -13800.00
03744             200.00   -14000.00
03745             200.00   -14000.00
03746             200.00   -13600.00
03747             200.00   -14200.00
03748             200.00   -14000.00
03749             200.00   -14000.00
03750             200.00   -14200.00
03751             200.00   -14200.00
03752             200.00   -14200.00
03753             200.00   -14000.00
03754             200.00   -14000.00
03755             240.00   -14200.00
03756             280.00   -14000.00
03757             200.00   -14200.00
03758             240.00   -14000.00
03759             200.00   -14000.00
03760             240.00   -14000.00
03761             280.00   -14000.00
03762             280.00   -13800.00
03763             280.00   -13600.00
03764             200.00   -13800.00
03765             200.00   -13800.00
03766             280.00   -13600.00
03767             280.00   -13600.00
03768             280.00   -13400.00
03769             280.00   -13400.00
03770             280.00   -13400.00
03771             280.00   -13400.00
03772             200.00   -13200.00
03773             280.00   -13200.00
03774             280.00   -13000.00
03775             280.00   -13000.00
03776             280.00   -12600.00
03777             200.00   -12600.00
03778             200.00   -12400.00
03779             240.00   -12400.00
03780             280.00   -12400.00
03781             200.00   -12200.00
03782             280.00   -12200.00
03783             240.00   -11800.00
03784             200.00   -11800.00
03785             200.00   -11600.00
03786             280.00   -11600.00
03787             200.00   -11400.00
03788             240.00   -11000.00
03789             280.00   -11000.00
03790             200.00   -10800.00
03791             200.00   -10800.00
03792             160.00   -10600.00
03793             200.00   -10200.00
03794             200.00   -10200.00
03795             200.00   -10000.00
03796             200.00    -9800.00
03797             200.00    -9400.00
03798             200.00    -9400.00
03799             200.00    -9200.00
03800             200.00    -9000.00
03801             200.00    -9000.00
03802             200.00    -8800.00
03803             160.00    -8400.00
03804             160.00    -8200.00
03805             160.00    -7800.00
03806             160.00    -7800.00
03807             160.00    -7600.00
03808             160.00    -7200.00
03809             160.00    -7000.00
03810             160.00    -6800.00
03811             120.00    -6600.00
03812             160.00    -6200.00
03813             120.00    -6000.00
03814             160.00    -5800.00
03815             160.00    -5400.00
03816             120.00    -5400.00
03817             120.00    -5200.00
03818             120.00    -4800.00
03819             120.00    -4600.00
03820             160.00    -4600.00
03821             160.00    -4000.00
03822             160.00    -3800.00
03823             120.00    -3600.00
03824             120.00    -3400.00
03825             120.00    -3000.00
03826             120.00    -3000.00
03827             120.00    -2600.00
03828              80.00    -2400.00
03829              40.00    -2000.00
03830             120.00    -1800.00
03831             120.00    -1600.00
03832              40.00    -1400.00
03833              80.00     -800.00
03834             120.00     -600.00
03835             120.00     -400.00
03836             120.00     -200.00
03837              40.00        0.00
03838              80.00      200.00
03839             160.00      600.00
03840             280.00      800.00
03841             280.00     1000.00
03842             200.00     1200.00
03843             160.00     1400.00
03844             120.00     1800.00
03845             240.00     2000.00
03846             960.00     2400.00
03847            1440.00     2600.00
03848             440.00     2800.00
03849           -1000.00     3400.00
03850           -1480.00     3400.00
03851           -1320.00     3800.00
03852            -600.00     3800.00
03853             760.00     4000.00
03854             480.00     4200.00
03855             520.00     5000.00
03856             160.00     4400.00
03857            -200.00     5400.00
03858             160.00     5600.00
03859            -200.00     5200.00
03860             160.00     6200.00
03861             120.00     5800.00
03862            -200.00     6400.00
03863            -200.00     6600.00
03864            -200.00     6600.00
03865              40.00     7400.00
03866            -160.00     6800.00
03867              40.00     7600.00
03868             -40.00     7600.00
03869             -40.00     7800.00
03870             -40.00     8200.00
03871            -120.00     8200.00
03872             -40.00     8600.00
03873            -160.00     8600.00
03874             -40.00     9200.00
03875            -160.00     9200.00
03876            -120.00     9400.00
03877            -200.00     9600.00
03878             -40.00     9800.00
03879            -120.00    10000.00
03880            -160.00    10200.00
03881            -160.00    10400.00
03882            -160.00    10600.00
03883            -160.00    10800.00
03884            -160.00    10800.00
03885            -160.00    11000.00
03886            -200.00    11400.00
03887            -200.00    11400.00
03888            -160.00    11600.00
03889            -160.00    11600.00
03890            -160.00    12000.00
03891            -160.00    12200.00
03892            -200.00    12000.00
03893            -200.00    12200.00
03894            -200.00    12400.00
03895            -160.00    12600.00
03896            -200.00    12800.00
03897            -200.00    12600.00
03898            -200.00    13000.00
03899            -200.00    13000.00
03900            -200.00    13000.00
03901            -200.00    13200.00
03902            -200.00    13200.00
03903            -200.00    13400.00
03904            -240.00    13600.00
03905            -200.00    13400.00
03906            -280.00    13600.00
03907            -200.00    13800.00
03908            -160.00    13800.00
03909            -200.00    14000.00
03910            -200.00    13800.00
03911            -200.00    14000.00
03912            -200.00    14000.00
03913            -200.00    14000.00
03914            -200.00    14200.00
03915            -200.00    14000.00
03916            -240.00    14200.00
03917            -240.00    14200.00
03918            -200.00    14000.00
03919            -200.00    14200.00
03920            -240.00    14200.00
03921            -240.00    14200.00
03922            -200.00    14200.00
03923            -280.00    14200.00
03924            -280.00    14000.00
03925            -280.00    14200.00
03926            -280.00    14000.00
03927            -280.00    14000.00
03928            -280.00    14000.00
03929            -200.00    14000.00
03930            -280.00    13800.00
03931            -320.00    13800.00
03932            -280.00    13800.00
03933            -320.00    13800.00
03934            -280.00    13800.00
03935            -200.00    13600.00
03936            -280.00    13400.00
03937            -280.00    13600.00
03938            -240.00    13400.00
03939            -280.00    13200.00
03940            -280.00    13200.00
03941            -280.00    13000.00
03942            -200.00    13000.00
03943            -240.00    12800.00
03944            -280.00    13000.00
03945            -280.00    13000.00
03946            -280.00    12400.00
03947            -240.00    12400.00
03948            -240.00    12200.00
03949            -280.00    12200.00
03950            -280.00    11800.00
03951            -280.00    11800.00
03952            -280.00    11600.00
03953            -200.00    11600.00
03954            -200.00    11400.00
03955            -200.00    11400.00
03956            -200.00    11000.00
03957            -240.00    10800.00
03958            -280.00    10600.00
03959            -200.00    10600.00
03960            -200.00    10200.00
03961            -200.00    10200.00
03962            -200.00    10000.00
03963            -200.00     9800.00
03964            -200.00     9800.00
03965            -200.00     9400.00
03966            -200.00     9200.00
03967            -200.00     9200.00
03968            -200.00     8800.00
03969            -200.00     8600.00
03970            -200.00     8400.00
03971            -200.00     8200.00
03972            -200.00     8200.00
03973            -200.00     7800.00
03974            -200.00     7800.00
03975            -200.00     7400.00
03976            -160.00     7200.00
03977            -200.00     6800.00
03978            -160.00     6600.00
03979            -160.00     6400.00
03980            -200.00     6200.00
03981            -120.00     5800.00
03982            -160.00     5800.00
03983            -160.00     5400.00
03984            -160.00     5200.00
03985            -160.00     5000.00
03986            -160.00     4600.00
03987            -160.00     4400.00
03988            -120.00     4000.00
03989            -120.00     4200.00
03990            -160.00     3800.00
03991            -160.00     3400.00
03992            -120.00     3200.00
03993            -160.00     2800.00
03994            -120.00     2600.00
03995            -120.00     2200.00
03996            -120.00     2000.00
03997            -120.00     1800.00
03998            -120.00     1600.00
03999            -120.00     1400.00
04000            -120.00     1000.00
04001            -120.00      800.00
04002             -40.00      400.00
04003             -40.00      400.00
04004             -40.00        0.00
04005             -40.00     -200.00
04006               0.00     -600.00
04007             120.00     -800.00
04008             160.00    -1000.00
04009             120.00    -1200.00
04010              40.00    -1400.00
04011               0.00    -1600.00
04012              40.00    -1800.00
04013             320.00    -2200.00
04014            1080.00    -2600.00
04015            1080.00    -3000.00
04016            -120.00    -3000.00
04017           -1000.00    -3400.00
04018           -1080.00    -3600.00
04019            -960.00    -3600.00
04020            -600.00    -3600.00
04021             440.00    -4400.00
04022             440.00    -4600.00
04023             440.00    -4400.00
04024             360.00    -5400.00
04025             -40.00    -5000.00
04026             280.00    -5600.00
04027             120.00    -5800.00
04028             120.00    -6000.00
04029             160.00    -6400.00
04030               0.00    -6200.00
04031             -40.00    -7000.00
04032            -120.00    -6800.00
04033             160.00    -7000.00
04034               0.00    -7600.00
04035              40.00    -7400.00
04036             200.00    -8000.00
04037             120.00    -7800.00
04038              80.00    -8400.00
04039             120.00    -8400.00
04040             160.00    -8400.00
04041             120.00    -9200.00
04042              80.00    -9200.00
04043             120.00    -9400.00
04044             120.00    -9400.00
04045              40.00    -9800.00
04046             120.00    -9800.00
04047             160.00   -10200.00
04048              80.00   -10400.00
04049             160.00   -10400.00
04050             200.00   -10600.00
04051             120.00   -10800.00
04052             160.00   -11000.00
04053             160.00   -11000.00
04054             120.00   -11400.00
04055             120.00   -11600.00
04056             160.00   -11400.00
04057             160.00   -11800.00
04058             160.00   -12000.00
04059             200.00   -12200.00
04060             160.00   -12000.00
04061             120.00   -12200.00
04062             160.00   -12400.00
04063             200.00   -12400.00
04064             200.00   -12800.00
04065             160.00   -12800.00
04066             160.00   -13000.00
04067             160.00   -13000.00
04068             160.00   -13200.00
04069             200.00   -13400.00
04070             240.00   -13400.00
04071             200.00   -13400.00
04072             160.00   -13400.00
04073             160.00   -13400.00
04074             200.00   -13600.00
04075             200.00   -13600.00
04076             200.00   -13600.00
04077             240.00   -13800.00
04078             200.00   -13800.00
04079             200.00   -13800.00
04080             200.00   -14000.00
04081             200.00   -14200.00
04082             200.00   -14000.00
04083             200.00   -14000.00
04084             240.00   -14200.00
04085             200.00   -14000.00
04086             240.00   -14200.00
04087             280.00   -14000.00
04088             280.00   -14000.00
04089             200.00   -14200.00
04090             280.00   -14200.00
04091             280.00   -14200.00
04092             200.00   -14000.00
04093             240.00   -14000.00
04094             280.00   -14000.00
04095             280.00   -13800.00
04096             280.00   -13800.00
04097             280.00   -13800.00
04098             280.00   -13600.00
04099             240.00   -13800.00
04100             240.00   -13600.00
04101             240.00   -13600.00
04102             280.00   -13400.00
04103             320.00   -13400.00
04104             280.00   -13600.00
04105             280.00   -13400.00
04106             200.00   -13200.00
04107             240.00   -13200.00
04108             280.00   -13000.00
04109             280.00   -13000.00
04110             280.00   -12800.00
04111             280.00   -12600.00
04112             200.00   -12600.00
04113             240.00   -12600.00
04114             280.00   -12400.00
04115             200.00   -12200.00
04116             280.00   -12200.00
04117             200.00   -12000.00
04118             240.00   -11800.00
04119             200.00   -11800.00
04120             200.00   -11400.00
04121             200.00   -11400.00
04122             200.00   -11400.00
04123             200.00   -11000.00
04124             200.00   -11000.00
04125             200.00   -10800.00
04126             200.00   -10600.00
04127             200.00   -10600.00
04128             200.00   -10200.00
04129             200.00   -10000.00
04130             200.00    -9800.00
04131             200.00    -9600.00
04132             160.00    -9400.00
04133             160.00    -9200.00
04134             160.00    -9200.00
04135             160.00    -9000.00
04136             200.00    -8800.00
04137             160.00    -8400.00
04138             160.00    -8200.00
04139             160.00    -8200.00
04140             160.00    -7800.00
04141             160.00    -7600.00
04142             160.00    -7200.00
04143             160.00    -7000.00
04144             160.00    -7000.00
04145             160.00    -6600.00
04146             120.00    -6600.00
04147             120.00    -6200.00
04148             120.00    -6000.00
04149             160.00    -5800.00
04150             120.00    -5400.00
04151             160.00    -5200.00
04152             120.00    -5000.00
04153             120.00    -4800.00
04154             120.00    -4400.00
04155             120.00    -4200.00
04156             160.00    -3800.00
04157             120.00    -3800.00
04158             120.00    -3400.00
04159              80.00    -3200.00
04160             120.00    -3000.00
04161             120.00    -2600.00
04162             120.00    -2400.00
04163             120.00    -2200.00
04164             120.00    -2000.00
04165              80.00    -1600.00
04166              40.00    -1400.00
04167              40.00    -1200.00
04168              40.00     -800.00
04169              40.00     -600.00
04170              40.00     -400.00
04171             120.00        0.00
04172              80.00      200.00
04173             120.00      400.00
04174             200.00      600.00
04175             280.00     1000.00
04176             280.00     1200.00
04177             160.00     1200.00
04178             120.00     1800.00
04179             160.00     1800.00
04180             600.00     2200.00
04181            1440.00     2800.00
04182             920.00     2800.00
04183            -600.00     3000.00
04184           -1480.00     3000.00
04185           -1400.00     3400.00
04186           -1080.00     3800.00
04187             360.00     4000.00
04188             640.00     4000.00
04189             360.00     4600.00
04190             360.00     4400.00
04191            -280.00     4800.00
04192             120.00     5800.00
04193             -40.00     5000.00
04194             -40.00     6000.00
04195             280.00     6000.00
04196            -120.00     6200.00
04197            -160.00     6600.00
04198            -280.00     6200.00
04199               0.00     7400.00
04200             -40.00     7000.00
04201             -40.00     7400.00
04202              80.00     7800.00
04203            -120.00     7800.00
04204             -40.00     8200.00
04205            -120.00     7800.00
04206               0.00     8800.00
04207            -160.00     8600.00
04208             -40.00     9000.00
04209            -120.00     9200.00
04210            -160.00     9200.00
04211            -160.00     9800.00
04212            -120.00     9800.00
04213               0.00    10000.00
04214            -160.00    10000.00
04215             -80.00    10200.00
04216            -160.00    10400.00
04217            -160.00    10600.00
04218            -200.00    11000.00
04219            -120.00    11200.00
04220            -160.00    11000.00
04221            -200.00    11400.00
04222            -160.00    11600.00
04223            -160.00    11600.00
04224            -160.00    12000.00
04225            -160.00    12000.00
04226            -160.00    12200.00
04227            -200.00    12200.00
04228            -200.00    12400.00
04229            -160.00    12400.00
04230            -200.00    12600.00
04231            -200.00    12600.00
04232            -200.00    12800.00
04233            -200.00    13000.00
04234            -160.00    13000.00
04235            -200.00    13000.00
04236            -200.00    13200.00
04237            -200.00    13400.00
04238            -240.00    13600.00
04239            -200.00    13400.00
04240            -200.00    13600.00
04241            -200.00    13400.00
04242            -200.00    13800.00
04243            -200.00    13800.00
04244            -200.00    13800.00
04245            -200.00    14000.00
04246            -280.00    13800.00
04247            -200.00    14000.00
04248            -200.00    14000.00
04249            -200.00    14000.00
04250            -200.00    14000.00
04251            -280.00    14000.00
04252            -200.00    14200.00
04253            -240.00    14200.00
04254            -280.00    14200.00
04255            -280.00    14200.00
04256            -200.00    14200.00
04257            -280.00    14200.00
04258            -280.00    14000.00
04259            -280.00    14200.00
04260            -280.00    14000.00
04261            -280.00    14000.00
04262            -200.00    14000.00
04263            -280.00    14000.00
04264            -240.00    14000.00
04265            -280.00    13800.00
04266            -280.00    13800.00
04267            -280.00    13800.00
04268            -280.00    13800.00
04269            -280.00    13800.00
04270            -280.00    13600.00
04271            -280.00    13400.00
04272            -280.00    13400.00
04273            -280.00    13200.00
04274            -280.00    13200.00
04275            -280.00    13200.00
04276            -240.00    13000.00
04277            -280.00    13000.00
04278            -280.00    13000.00
04279            -280.00    12600.00
04280            -280.00    12600.00
04281            -280.00    12600.00
04282            -200.00    12200.00
04283            -200.00    12200.00
04284            -240.00    12200.00
04285            -280.00    12000.00
04286            -280.00    11800.00
04287            -280.00    11600.00
04288            -240.00    11400.00
04289            -200.00    11400.00
04290            -200.00    11200.00
04291            -280.00    11000.00
04292            -200.00    10600.00
04293            -240.00    10600.00
04294            -240.00    10400.00
04295            -200.00    10200.00
04296            -200.00    10000.00
04297            -200.00    10000.00
04298            -200.00     9800.00
04299            -200.00     9600.00
04300            -200.00     9200.00
04301            -200.00     9200.00
04302            -200.00     9000.00
04303            -200.00     8600.00
04304            -200.00     8600.00
04305            -200.00     8400.00
04306            -200.00     8200.00
04307            -200.00     7800.00
04308            -200.00     7600.00
04309            -160.00     7400.00
04310            -200.00     7200.00
04311            -160.00     7000.00
04312            -160.00     6600.00
04313            -200.00     6400.00
04314            -160.00     6200.00
04315            -200.00     6000.00
04316            -200.00     5800.00
04317            -160.00     5600.00
04318            -200.00     5200.00
04319            -160.00     5000.00
04320            -200.00     4800.00
04321            -160.00     4400.00
04322            -160.00     4400.00
04323            -160.00     3800.00
04324            -120.00     3800.00
04325            -160.00     3600.00
04326            -160.00     3200.00
04327            -160.00     3000.00
04328            -160.00     2800.00
04329            -120.00     2600.00
04330            -120.00     2200.00
04331            -120.00     2000.00
04332            -120.00     1600.00
04333            -120.00     1400.00
04334            -120.00     1000.00
04335            -120.00     1000.00
04336            -120.00      600.00
04337             -40.00      400.00
04338             -80.00      200.00
04339             -40.00     -200.00
04340               0.00     -400.00
04341             120.00     -600.00
04342             160.00    -1000.00
04343             120.00    -1000.00
04344              40.00    -1200.00
04345              40.00    -1400.00
04346              40.00    -2000.00
04347             200.00    -2000.00
04348             760.00    -2600.00
04349            1240.00    -3000.00
04350             360.00    -3000.00
04351            -800.00    -3400.00
04352           -1120.00    -3600.00
04353            -960.00    -3600.00
04354            -840.00    -3600.00
04355             120.00    -4200.00
04356             520.00    -4800.00
04357             360.00    -4400.00
04358             480.00    -5200.00
04359               0.00    -5200.00
04360             160.00    -5200.00
04361             280.00    -5800.00
04362              40.00    -5800.00
04363             200.00    -6400.00
04364             120.00    -6200.00
04365             -40.00    -6600.00
04366            -120.00    -7000.00
04367             120.00    -6600.00
04368              80.00    -7600.00
04369               0.00    -7400.00
04370             160.00    -7800.00
04371             160.00    -7800.00
04372             120.00    -8200.00
04373             120.00    -8400.00
04374             160.00    -8400.00
04375             160.00    -9000.00
04376              80.00    -9000.00
04377             120.00    -9400.00
04378             120.00    -9400.00
04379              40.00    -9800.00
04380             120.00   -10000.00
04381             200.00   -10000.00
04382             120.00   -10400.00
04383             120.00   -10400.00
04384             160.00   -10600.00
04385             160.00   -10800.00
04386             120.00   -11000.00
04387             160.00   -11000.00
04388             120.00   -11000.00
04389             120.00   -11600.00
04390             120.00   -11600.00
04391             200.00   -11800.00
04392             160.00   -11800.00
04393             160.00   -12000.00
04394             160.00   -12200.00
04395             160.00   -12200.00
04396             160.00   -12400.00
04397             160.00   -12400.00
04398             200.00   -12600.00
04399             160.00   -12800.00
04400             160.00   -13000.00
04401             160.00   -13000.00
04402             160.00   -13000.00
04403             200.00   -13200.00
04404             200.00   -13200.00
04405             200.00   -13400.00
04406             160.00   -13400.00
04407             160.00   -13400.00
04408             200.00   -13600.00
04409             200.00   -13600.00
04410             200.00   -13800.00
04411             280.00   -13600.00
04412             200.00   -13800.00
04413             200.00   -14000.00
04414             200.00   -14000.00
04415             200.00   -14000.00
04416             200.00   -14000.00
04417             200.00   -14000.00
04418             240.00   -14000.00
04419             200.00   -14000.00
04420             200.00   -14000.00
04421             240.00   -14200.00
04422             200.00   -14000.00
04423             280.00   -14200.00
04424             280.00   -14000.00
04425             240.00   -14000.00
04426             240.00   -14000.00
04427             200.00   -14000.00
04428             280.00   -14000.00
04429             280.00   -14000.00
04430             280.00   -14000.00
04431             280.00   -13600.00
04432             280.00   -14000.00
04433             240.00   -13800.00
04434             240.00   -13600.00
04435             240.00   -13600.00
04436             240.00   -13600.00
04437             240.00   -13400.00
04438             280.00   -13400.00
04439             280.00   -13400.00
04440             200.00   -13400.00
04441             280.00   -13200.00
04442             280.00   -13200.00
04443             240.00   -13000.00
04444             280.00   -13000.00
04445             200.00   -12800.00
04446             280.00   -12600.00
04447             200.00   -12600.00
04448             200.00   -12400.00
04449             200.00   -12400.00
04450             200.00   -12200.00
04451             240.00   -12200.00
04452             280.00   -11800.00
04453             200.00   -11800.00
04454             200.00   -11600.00
04455             200.00   -11400.00
04456             200.00   -11400.00
04457             280.00   -11000.00
04458             200.00   -11000.00
04459             200.00   -10800.00
04460             160.00   -10800.00
04461             200.00   -10400.00
04462             200.00   -10200.00
04463             200.00   -10200.00
04464             200.00   -10000.00
04465             200.00    -9800.00
04466             160.00    -9600.00
04467             200.00    -9400.00
04468             200.00    -9200.00
04469             160.00    -9000.00
04470             200.00    -8600.00
04471             200.00    -8600.00
04472             160.00    -8400.00
04473             160.00    -8000.00
04474             160.00    -7800.00
04475             200.00    -7800.00
04476             200.00    -7200.00
04477             160.00    -7400.00
04478             200.00    -7000.00
04479             120.00    -6800.00
04480             160.00    -6600.00
04481             160.00    -6400.00
04482             120.00    -6000.00
04483             160.00    -5800.00
04484             160.00    -5400.00
04485             120.00    -5400.00
04486             160.00    -5000.00
04487             160.00    -5000.00
04488             160.00    -4600.00
04489             120.00    -4200.00
04490             160.00    -4000.00
04491             160.00    -4000.00
04492             120.00    -3600.00
04493             120.00    -3400.00
04494             120.00    -3000.00
04495             120.00    -2800.00
04496             120.00    -2600.00
04497             120.00    -2400.00
04498             120.00    -2000.00
04499              40.00    -1800.00
04500              40.00    -1400.00
04501             120.00    -1200.00
04502              40.00     -800.00
04503             120.00     -600.00
04504              80.00     -400.00
04505             120.00     -200.00
04506              80.00      200.00
04507              80.00      400.00
04508             160.00      600.00
04509             240.00      600.00
04510             280.00     1000.00
04511             200.00     1200.00
04512             120.00     1400.00
04513             120.00     1800.00
04514             320.00     2000.00
04515            1240.00     2600.00
04516            1280.00     2800.00
04517               0.00     3000.00
04518           -1280.00     3000.00
04519           -1440.00     3400.00
04520           -1320.00     3800.00
04521            -200.00     4200.00
04522             760.00     4200.00
04523             440.00     4400.00
04524             480.00     4800.00
04525             -40.00     4400.00
04526            -120.00     5600.00
04527             160.00     5400.00
04528            -200.00     5400.00
04529             280.00     6000.00
04530              40.00     5800.00
04531            -160.00     6800.00
04532            -280.00     6200.00
04533            -120.00     7000.00
04534               0.00     7200.00
04535            -160.00     6800.00
04536             120.00     7800.00
04537             -40.00     7400.00
04538             -40.00     8200.00
04539            -120.00     8200.00
04540             -40.00     8600.00
04541             -40.00     8600.00
04542            -160.00     8600.00
04543             -40.00     9200.00
04544            -160.00     9200.00
04545            -120.00     9600.00
04546            -160.00     9800.00
04547             -40.00     9800.00
04548            -120.00    10000.00
04549             -40.00    10200.00
04550            -160.00    10600.00
04551            -120.00    10600.00
04552            -160.00    10800.00
04553            -160.00    11000.00
04554            -120.00    11000.00
04555            -200.00    11400.00
04556            -160.00    11400.00
04557            -160.00    11600.00
04558            -120.00    12000.00
04559            -160.00    11800.00
04560            -160.00    12000.00
04561            -200.00    12200.00
04562            -200.00    12200.00
04563            -160.00    12400.00
04564            -160.00    12600.00
04565            -200.00    12800.00
04566            -200.00    12600.00
04567            -200.00    13000.00
04568            -160.00    13000.00
04569            -160.00    13200.00
04570            -160.00    13000.00
04571            -200.00    13200.00
04572            -200.00    13400.00
04573            -200.00    13400.00
04574            -280.00    13400.00
04575            -240.00    13600.00
04576            -200.00    13800.00
04577            -200.00    13800.00
04578            -200.00    13800.00
04579            -240.00    14000.00
04580            -240.00    14000.00
04581            -200.00    14000.00
04582            -280.00    14000.00
04583            -200.00    14000.00
04584            -200.00    14000.00
04585            -280.00    14200.00
04586            -280.00    14000.00
04587            -240.00    14200.00
04588            -240.00    14000.00
04589            -200.00    14200.00
04590            -280.00    14000.00
04591            -200.00    14200.00
04592            -280.00    14000.00
04593            -280.00    14000.00
04594            -280.00    14000.00
04595            -280.00    14200.00
04596            -280.00    14000.00
04597            -200.00    14200.00
04598            -240.00    13800.00
04599            -280.00    13800.00
04600            -280.00    13800.00
04601            -280.00    13800.00
04602            -200.00    13800.00
04603            -280.00    13600.00
04604            -280.00    13800.00
04605            -200.00    13400.00
04606            -280.00    13400.00
04607            -280.00    13400.00
04608            -280.00    13200.00
04609            -240.00    13200.00
04610            -280.00    13000.00
04611            -240.00    13000.00
04612            -240.00    13000.00
04613            -280.00    12600.00
04614            -240.00    12600.00
04615            -240.00    12600.00
04616            -240.00    12400.00
04617            -200.00    12400.00
04618            -200.00    12200.00
04619            -240.00    12000.00
04620            -280.00    11800.00
04621            -280.00    11600.00
04622            -280.00    11400.00
04623            -200.00    11400.00
04624            -200.00    11400.00
04625            -200.00    11000.00
04626            -200.00    10800.00
04627            -240.00    10600.00
04628            -200.00    10600.00
04629            -200.00    10400.00
04630            -200.00    10200.00
04631            -200.00     9800.00
04632            -200.00     9800.00
04633            -200.00     9800.00
04634            -200.00     9400.00
04635            -200.00     9200.00
04636            -200.00     9000.00
04637            -200.00     8600.00
04638            -200.00     8600.00
04639            -200.00     8200.00
04640            -200.00     8200.00
04641            -200.00     7800.00
04642            -200.00     7800.00
04643            -200.00     7600.00
04644            -200.00     7200.00
04645            -200.00     7000.00
04646            -200.00     6600.00
04647            -200.00     6600.00
04648            -200.00     6200.00
04649            -160.00     6000.00
04650            -160.00     5800.00
04651            -200.00     5800.00
04652            -200.00     5400.00
04653            -160.00     5200.00
04654            -160.00     5000.00
04655            -200.00     4600.00
04656            -200.00     4400.00
04657            -160.00     4200.00
04658            -120.00     3800.00
04659            -160.00     3600.00
04660            -160.00     3400.00
04661            -160.00     3000.00
04662            -160.00     3000.00
04663            -160.00     2600.00
04664            -120.00     2200.00
04665            -120.00     2000.00
04666            -120.00     1800.00
04667            -120.00     1400.00
04668            -120.00     1200.00
04669            -120.00     1000.00
04670            -120.00      600.00
04671             -40.00      400.00
04672            -120.00      200.00
04673             -40.00        0.00
04674             -40.00     -200.00
04675              40.00     -400.00
04676             160.00     -800.00
04677             160.00    -1000.00
04678             120.00    -1200.00
04679              40.00    -1600.00
04680               0.00    -1800.00
04681             120.00    -2000.00
04682             480.00    -2200.00
04683            1240.00    -2600.00
04684             760.00    -3000.00
04685            -440.00    -3200.00
04686           -1160.00    -3600.00
04687           -1000.00    -3400.00
04688            -920.00    -3600.00
04689            -360.00    -4000.00
04690             520.00    -4600.00
04691             360.00    -4400.00
04692             480.00    -4600.00
04693             200.00    -5400.00
04694               0.00    -5000.00
04695             280.00    -5800.00
04696              40.00    -5800.00
04697             160.00    -6200.00
04698             160.00    -6200.00
04699               0.00    -6400.00
04700            -120.00    -7000.00
04701               0.00    -6800.00
04702             160.00    -7400.00
04703               0.00    -7400.00
04704             120.00    -7600.00
04705             160.00    -7800.00
04706             120.00    -7800.00
04707              80.00    -8600.00
04708             120.00    -8400.00
04709             160.00    -9000.00
04710              80.00    -9000.00
04711             120.00    -9400.00
04712              40.00    -9400.00
04713              40.00    -9600.00
04714              80.00    -9800.00
04715             200.00    -9800.00
04716             120.00   -10200.00
04717             120.00   -10400.00
04718             160.00   -10600.00
04719             160.00   -10800.00
04720             120.00   -11000.00
04721             120.00   -11200.00
04722             160.00   -11000.00
04723              80.00   -11400.00
04724             120.00   -11600.00
04725             160.00   -11800.00
04726             160.00   -11800.00
04727             160.00   -12000.00
04728             160.00   -12200.00
04729             160.00   -12400.00
04730             120.00   -12400.00
04731             160.00   -12400.00
04732             200.00   -12600.00
04733             160.00   -12600.00
04734             160.00   -12600.00
04735             200.00   -13000.00
04736             200.00   -13000.00
04737             200.00   -13200.00
04738             200.00   -13200.00
04739             200.00   -13400.00
04740             160.00   -13400.00
04741             160.00   -13600.00
04742             200.00   -13400.00
04743             200.00   -13600.00
04744             200.00   -13800.00
04745             280.00   -13600.00
04746             280.00   -13800.00
04747             200.00   -13800.00
04748             240.00   -14000.00
04749             280.00   -13600.00
04750             200.00   -14000.00
04751             200.00   -14000.00
04752             280.00   -14000.00
04753             200.00   -14000.00
04754             200.00   -14200.00
04755             200.00   -14000.00
04756             280.00   -14000.00
04757             240.00   -14200.00
04758             280.00   -14200.00
04759             280.00   -14000.00
04760             240.00   -14000.00
04761             280.00   -14000.00
04762             200.00   -14000.00
04763             280.00   -14000.00
04764             280.00   -13600.00
04765             280.00   -13800.00
04766             280.00   -13800.00
04767             280.00   -13800.00
04768             280.00   -13600.00
04769             240.00   -13600.00
04770             240.00   -13600.00
04771             280.00   -13400.00
04772             240.00   -13400.00
04773             280.00   -13400.00
04774             200.00   -13400.00
04775             200.00   -13200.00
04776             200.00   -13200.00
04777             280.00   -13000.00
04778             240.00   -13000.00
04779             280.00   -13000.00
04780             200.00   -12600.00
04781             280.00   -12600.00
04782             200.00   -12600.00
04783             200.00   -12400.00
04784             280.00   -12200.00
04785             200.00   -12200.00
04786             280.00   -12200.00
04787             160.00   -11800.00
04788             200.00   -11800.00
04789             240.00   -11400.00
04790             280.00   -11400.00
04791             200.00   -11200.00
04792             200.00   -11000.00
04793             200.00   -11000.00
04794             160.00   -10600.00
04795             200.00   -10600.00
04796             200.00   -10200.00
04797             200.00   -10200.00
04798             200.00   -10000.00
04799             200.00    -9800.00
04800             160.00    -9800.00
04801             160.00    -9400.00
04802             200.00    -9200.00
04803             160.00    -9000.00
04804             160.00    -8800.00
04805             200.00    -8600.00
04806             200.00    -8400.00
04807             200.00    -8200.00
04808             240.00    -8200.00
04809             200.00    -7600.00
04810             200.00    -7600.00
04811             160.00    -7200.00
04812             120.00    -7000.00
04813              40.00    -7000.00
04814              40.00    -6600.00
04815              40.00    -6600.00
04816             160.00    -6200.00
04817             200.00    -5800.00
04818             240.00    -5800.00
04819             280.00    -5400.00
04820             200.00    -5200.00
04821             160.00    -4800.00
04822               0.00    -4600.00
04823               0.00    -4400.00
04824              80.00    -4200.00
04825             120.00    -3800.00
04826             120.00    -3600.00
04827             200.00    -3400.00
04828             160.00    -3000.00
04829             120.00    -3000.00
04830             160.00    -2800.00
04831             120.00    -2400.00
04832              40.00    -2000.00
04833              40.00    -1800.00
04834              40.00    -1600.00
04835              40.00    -1200.00
04836              40.00     -800.00
04837             120.00     -600.00
04838             120.00     -600.00
04839             160.00     -200.00
04840             120.00     -200.00
04841              80.00      200.00
04842              40.00      400.00
04843             160.00      800.00
04844             200.00     1000.00
04845             160.00     1000.00
04846             120.00     1400.00
04847             120.00     1800.00
04848             280.00     2000.00
04849             920.00     2200.00
04850            1520.00     2600.00
04851             560.00     2800.00
04852            -960.00     3000.00
04853           -1520.00     3000.00
04854           -1400.00     3600.00
04855            -800.00     4000.00
04856             640.00     4000.00
04857             560.00     4200.00
04858             520.00     4800.00
04859             200.00     4600.00
04860            -240.00     5200.00
04861             200.00     5800.00
04862            -200.00     5200.00
04863              40.00     6200.00
04864             160.00     5800.00
04865            -160.00     6400.00
04866            -160.00     6600.00
04867            -200.00     6600.00
04868             120.00     7400.00
04869            -120.00     6800.00
04870               0.00     7600.00
04871               0.00     7600.00
04872            -120.00     7800.00
04873             -80.00     8200.00
04874            -120.00     8200.00
04875               0.00     8800.00
04876            -160.00     8600.00
04877               0.00     9200.00
04878            -120.00     9200.00
04879            -120.00     9400.00
04880            -160.00     9600.00
04881             -40.00     9800.00
04882             -40.00    10000.00
04883            -120.00    10200.00
04884            -120.00    10600.00
04885            -160.00    10600.00
04886            -120.00    10800.00
04887            -160.00    10800.00
04888            -120.00    11000.00
04889            -200.00    11400.00
04890            -200.00    11400.00
04891            -160.00    11600.00
04892            -120.00    11800.00
04893            -160.00    12000.00
04894            -160.00    12000.00
04895            -200.00    12200.00
04896            -200.00    12200.00
04897            -200.00    12400.00
04898            -120.00    12600.00
04899            -160.00    12600.00
04900            -200.00    12800.00
04901            -200.00    13000.00
04902            -200.00    13200.00
04903            -200.00    13000.00
04904            -200.00    13200.00
04905            -160.00    13200.00
04906            -200.00    13400.00
04907            -200.00    13400.00
04908            -200.00    13400.00
04909            -280.00    13600.00
04910            -200.00    13600.00
04911            -200.00    13800.00
04912            -200.00    14000.00
04913            -280.00    14000.00
04914            -280.00    14000.00
04915            -200.00    14000.00
04916            -200.00    14000.00
04917            -200.00    14200.00
04918            -200.00    14000.00
04919            -240.00    14200.00
04920            -280.00    14000.00
04921            -280.00    14200.00
04922            -280.00    14200.00
04923            -240.00    14000.00
04924            -280.00    14200.00
04925            -200.00    14200.00
04926            -280.00    14000.00
04927            -280.00    14000.00
04928            -280.00    14200.00
04929            -280.00    14000.00
04930            -280.00    14000.00
04931            -240.00    14000.00
04932            -200.00    14000.00
04933            -240.00    14000.00
04934            -280.00    13800.00
04935            -280.00    13800.00
04936            -240.00    13800.00
04937            -280.00    13600.00
04938            -240.00    13800.00
04939            -200.00    13600.00
04940            -200.00    13400.00
04941            -280.00    13400.00
04942            -280.00    13200.00
04943            -200.00    13200.00
04944            -240.00    13000.00
04945            -240.00    13000.00
04946            -240.00    13000.00
04947            -200.00    12800.00
04948            -280.00    12600.00
04949            -200.00    12600.00
04950            -200.00    12400.00
04951            -200.00    12400.00
04952            -240.00    12200.00
04953            -240.00    12000.00
04954            -240.00    11800.00
04955            -240.00    11600.00
04956            -200.00    11600.00
04957            -200.00    11400.00
04958            -200.00    11200.00
04959            -200.00    11000.00
04960            -200.00    11000.00
04961            -240.00    10600.00
04962            -200.00    10600.00
04963            -200.00    10400.00
04964            -200.00    10200.00
04965            -200.00    10200.00
04966            -200.00     9800.00
04967            -240.00     9600.00
04968            -200.00     9400.00
04969            -280.00     9200.00
04970            -200.00     9000.00
04971            -200.00     8800.00
04972            -200.00     8600.00
04973            -200.00     8400.00
04974            -200.00     8200.00
04975            -200.00     8000.00
04976            -200.00     7800.00
04977            -200.00     7600.00
04978            -200.00     7200.00
04979            -200.00     7000.00
04980            -200.00     6800.00
04981            -200.00     6600.00
04982            -200.00     6200.00
04983            -200.00     6200.00
04984            -160.00     6000.00
04985            -200.00     5800.00
04986            -200.00     5400.00
04987            -200.00     5200.00
04988            -160.00     5000.00
04989            -200.00     4600.00
04990            -160.00     4400.00
04991            -160.00     4200.00
04992            -160.00     4000.00
04993            -160.00     3600.00
04994            -160.00     3400.00
04995            -160.00     3200.00
04996            -120.00     3000.00
04997            -120.00     2600.00
04998            -120.00     2400.00
04999            -120.00     2000.00
05000            -120.00     1800.00
