Unit:(mV)
                     CH1         CH2
Frequency              ? 234.079 kHz
00001               6.00    12000.00
00002              12.80    12200.00
00003               7.60    12000.00
00004               5.80    12400.00
00005              11.00    12400.00
00006               9.80    12400.00
00007               6.80    12600.00
00008              10.20    12600.00
00009              11.80    12800.00
00010               9.40    12800.00
00011               9.60    13000.00
00012              13.00    13000.00
00013              12.20    13200.00
00014               9.80    13200.00
00015              12.80    13400.00
00016              14.60    13200.00
00017              12.60    13400.00
00018              12.80    13400.00
00019              15.40    13600.00
00020              14.80    13600.00
00021              14.00    13600.00
00022              16.60    13800.00
00023              17.00    13600.00
00024              16.00    13600.00
00025              17.40    14000.00
00026              19.40    13800.00
00027              18.20    13800.00
00028              18.60    14000.00
00029              20.80    13800.00
00030              21.00    14000.00
00031              20.60    14000.00
00032              22.20    14200.00
00033              22.80    14000.00
00034              23.00    14200.00
00035              23.40    14200.00
00036              23.80    14200.00
00037              24.40    14000.00
00038              24.60    14200.00
00039              25.00    14200.00
00040              25.00    14000.00
00041              25.00    14200.00
00042              23.80    14000.00
00043              23.80    14200.00
00044              23.20    14000.00
00045              21.60    14000.00
00046              21.20    14000.00
00047              20.60    14000.00
00048              19.40    14000.00
00049              18.60    14000.00
00050              17.40    14000.00
00051              17.00    14000.00
00052              17.00    13800.00
00053              16.00    14000.00
00054              15.80    13600.00
00055              14.80    13600.00
00056              14.20    13600.00
00057              13.80    13600.00
00058              13.20    13400.00
00059              13.20    13400.00
00060              12.40    13200.00
00061              12.20    13400.00
00062              12.60    13200.00
00063              11.60    13200.00
00064              10.80    13200.00
00065              10.80    13000.00
00066              10.80    13000.00
00067              10.20    12800.00
00068              10.00    12600.00
00069               9.40    12800.00
00070               9.20    12600.00
00071               9.20    12400.00
00072               8.80    12400.00
00073               7.80    12400.00
00074               8.40    12200.00
00075               8.20    12200.00
00076               8.20    12000.00
00077               7.60    12000.00
00078               7.20    11800.00
00079               7.40    11800.00
00080               7.00    11600.00
00081               6.80    11200.00
00082               7.00    11200.00
00083               6.00    11200.00
00084               6.00    11000.00
00085               6.60    11000.00
00086               5.60    10800.00
00087               5.20    10800.00
00088               5.80    10400.00
00089               5.40    10400.00
00090               5.20    10200.00
00091               4.60    10000.00
00092               5.80     9800.00
00093               4.40     9800.00
00094               3.80     9600.00
00095               5.00     9400.00
00096               4.60     9200.00
00097               2.60     9200.00
00098               4.80     8800.00
00099               4.40     8800.00
00100               2.60     8600.00
00101               3.60     8400.00
00102               4.40     8200.00
00103               2.60     8200.00
00104               2.80     8000.00
00105               3.60     7800.00
00106               2.60     7800.00
00107               2.60     7400.00
00108               3.00     7200.00
00109               2.60     7200.00
00110               2.20     7000.00
00111               2.20     6800.00
00112               2.60     6600.00
00113               2.20     6400.00
00114               1.80     6200.00
00115               2.00     6000.00
00116               2.20     5800.00
00117               1.40     5600.00
00118               1.40     5400.00
00119               1.80     5400.00
00120               1.40     5000.00
00121               1.40     4800.00
00122               1.40     4600.00
00123               1.40     4400.00
00124               1.00     4400.00
00125               1.00     4000.00
00126               1.20     4000.00
00127               1.00     3800.00
00128               0.60     3600.00
00129               1.20     3200.00
00130               1.00     3000.00
00131               0.40     3000.00
00132               0.60     2800.00
00133               0.40     2400.00
00134               0.40     2200.00
00135               0.60     2200.00
00136               0.40     2000.00
00137               0.40     1600.00
00138               0.40     1600.00
00139               0.20     1200.00
00140               0.20     1000.00
00141               0.20      800.00
00142               0.40      600.00
00143              -0.20      400.00
00144               0.00      400.00
00145              -0.20        0.00
00146              -0.20     -200.00
00147              -0.20     -400.00
00148               1.20     -400.00
00149               1.20     -800.00
00150              -2.20     -800.00
00151              -0.80    -1200.00
00152               1.00    -1200.00
00153              -1.20    -1400.00
00154               0.40    -1800.00
00155              19.40    -1800.00
00156              11.80    -2400.00
00157             -25.00    -2400.00
00158             -15.80    -2800.00
00159               6.00    -2600.00
00160              25.00    -2800.00
00161              25.00    -3600.00
00162             -25.00    -3200.00
00163              25.00    -3200.00
00164              25.00    -4000.00
00165             -25.00    -3600.00
00166             -25.00    -4200.00
00167              25.00    -4600.00
00168             -25.00    -4400.00
00169             -25.00    -4800.00
00170              25.00    -5000.00
00171             -25.00    -5000.00
00172               4.80    -5600.00
00173             -21.20    -5400.00
00174              14.80    -5800.00
00175              25.00    -6000.00
00176             -25.00    -5800.00
00177              25.00    -6400.00
00178              25.00    -6400.00
00179             -25.00    -6600.00
00180              -9.00    -7000.00
00181              25.00    -6800.00
00182               8.60    -7200.00
00183             -25.00    -7400.00
00184              19.40    -7600.00
00185              25.00    -8000.00
00186             -25.00    -8000.00
00187               3.40    -8400.00
00188              23.60    -8200.00
00189             -17.40    -8600.00
00190             -24.60    -8600.00
00191              17.00    -8800.00
00192               5.60    -9000.00
00193             -25.00    -9000.00
00194              10.80    -9200.00
00195               4.20    -9600.00
00196             -18.60    -9600.00
00197              -6.00    -9800.00
00198               4.20    -9800.00
00199              -6.20   -10000.00
00200             -14.60   -10000.00
00201               2.20   -10400.00
00202              -2.20   -10400.00
00203             -13.00   -10600.00
00204              -7.00   -10800.00
00205               2.20   -10800.00
00206             -12.00   -11000.00
00207              -9.80   -11000.00
00208               2.00   -11200.00
00209             -10.20   -11200.00
00210             -11.60   -11600.00
00211              -3.00   -11600.00
00212              -4.60   -11600.00
00213             -15.00   -11800.00
00214              -6.00   -12000.00
00215              -2.20   -12200.00
00216             -13.40   -12200.00
00217             -10.00   -12400.00
00218              -4.40   -12400.00
00219             -10.80   -12400.00
00220             -13.00   -12600.00
00221              -6.20   -12800.00
00222              -9.00   -12800.00
00223             -13.40   -12800.00
00224             -10.80   -13000.00
00225              -7.60   -13000.00
00226             -13.40   -13200.00
00227             -14.40   -13000.00
00228              -9.60   -13200.00
00229             -11.80   -13400.00
00230             -15.00   -13400.00
00231             -13.80   -13600.00
00232             -12.20   -13600.00
00233             -15.80   -13600.00
00234             -16.40   -13600.00
00235             -14.00   -13800.00
00236             -17.00   -13600.00
00237             -18.00   -13800.00
00238             -16.40   -13800.00
00239             -17.40   -13800.00
00240             -19.80   -13800.00
00241             -19.80   -14000.00
00242             -18.80   -14000.00
00243             -20.40   -14000.00
00244             -22.20   -14000.00
00245             -21.80   -14000.00
00246             -22.00   -14000.00
00247             -23.00   -14000.00
00248             -23.80   -14000.00
00249             -23.60   -14200.00
00250             -24.40   -14000.00
00251             -25.00   -14000.00
00252             -25.00   -14000.00
00253             -25.00   -14000.00
00254             -25.00   -14200.00
00255             -25.00   -14000.00
00256             -24.40   -14200.00
00257             -23.80   -14000.00
00258             -24.40   -14200.00
00259             -22.20   -14000.00
00260             -21.40   -14000.00
00261             -21.00   -14000.00
00262             -19.00   -14000.00
00263             -19.60   -14000.00
00264             -18.80   -13800.00
00265             -17.40   -14000.00
00266             -17.40   -13800.00
00267             -16.60   -13800.00
00268             -16.20   -13800.00
00269             -14.80   -13600.00
00270             -15.80   -13600.00
00271             -14.20   -13600.00
00272             -12.60   -13600.00
00273             -15.80   -13600.00
00274             -12.40   -13200.00
00275             -11.00   -13200.00
00276             -14.20   -13200.00
00277             -12.20   -13200.00
00278             -10.80   -13000.00
00279             -11.00   -13000.00
00280             -11.80   -12800.00
00281             -10.20   -12800.00
00282             -10.20   -12800.00
00283             -11.00   -12600.00
00284              -9.20   -12600.00
00285             -10.00   -12400.00
00286              -9.20   -12400.00
00287              -9.20   -12200.00
00288              -9.20   -12200.00
00289              -7.40   -12000.00
00290              -9.00   -12000.00
00291              -8.80   -11800.00
00292              -7.00   -11800.00
00293              -7.00   -11600.00
00294              -7.60   -11400.00
00295              -7.40   -11400.00
00296              -7.40   -11000.00
00297              -6.00   -11000.00
00298              -6.80   -11000.00
00299              -8.20   -10800.00
00300              -5.40   -10600.00
00301              -6.00   -10600.00
00302              -7.40   -10400.00
00303              -4.60   -10200.00
00304              -4.60   -10000.00
00305              -6.80   -10000.00
00306              -5.00    -9800.00
00307              -4.60    -9800.00
00308              -6.20    -9600.00
00309              -5.40    -9600.00
00310              -4.20    -9000.00
00311              -4.60    -9200.00
00312              -5.00    -9000.00
00313              -4.20    -8800.00
00314              -4.40    -8600.00
00315              -4.40    -8400.00
00316              -3.80    -8200.00
00317              -3.80    -8200.00
00318              -4.20    -8000.00
00319              -4.20    -7800.00
00320              -3.00    -7600.00
00321              -3.40    -7400.00
00322              -3.60    -7400.00
00323              -3.40    -7000.00
00324              -2.80    -6800.00
00325              -2.60    -6800.00
00326              -3.00    -6600.00
00327              -3.00    -6400.00
00328              -2.80    -6000.00
00329              -2.20    -6000.00
00330              -3.00    -5800.00
00331              -2.60    -5600.00
00332              -2.20    -5600.00
00333              -3.00    -5200.00
00334              -2.00    -5000.00
00335              -1.20    -4600.00
00336              -2.80    -4600.00
00337              -2.00    -4400.00
00338              -1.00    -4200.00
00339              -2.00    -4000.00
00340              -1.80    -3800.00
00341              -1.20    -3600.00
00342              -1.80    -3400.00
00343              -1.80    -3200.00
00344              -1.40    -3000.00
00345              -1.40    -3000.00
00346              -1.40    -2600.00
00347              -1.40    -2600.00
00348              -0.60    -2400.00
00349              -1.00    -2200.00
00350              -1.20    -1800.00
00351              -0.60    -1600.00
00352              -0.60    -1400.00
00353              -0.60    -1200.00
00354              -0.60     -800.00
00355              -0.20     -800.00
00356              -0.80     -600.00
00357              -0.40     -400.00
00358              -0.20     -200.00
00359              -0.60        0.00
00360              -0.40      200.00
00361               1.20      400.00
00362               2.00      400.00
00363              -1.00      600.00
00364              -0.60      800.00
00365               1.40     1200.00
00366               0.40     1400.00
00367              -0.60     1600.00
00368               2.60     1800.00
00369              12.60     2000.00
00370              16.40     2400.00
00371             -25.00     2600.00
00372             -23.80     2600.00
00373               9.00     2800.00
00374               1.40     3000.00
00375              25.00     3200.00
00376             -17.60     3400.00
00377             -25.00     3800.00
00378              25.00     3800.00
00379              23.60     3800.00
00380             -25.00     4200.00
00381              25.00     4400.00
00382              25.00     4400.00
00383             -25.00     4800.00
00384              25.00     5200.00
00385              15.40     5200.00
00386             -18.60     5400.00
00387               2.60     5600.00
00388               3.00     5800.00
00389              17.00     6000.00
00390             -17.40     6200.00
00391              -7.40     6400.00
00392              25.00     6400.00
00393               0.60     7000.00
00394             -23.40     7000.00
00395               7.40     7200.00
00396              25.00     7200.00
00397             -18.20     7400.00
00398             -16.80     7800.00
00399              25.00     7800.00
00400               1.00     8200.00
00401             -21.40     8400.00
00402              21.00     8400.00
00403              13.60     8400.00
00404             -20.20     8800.00
00405               8.40     8800.00
00406              22.80     9000.00
00407             -10.80     9200.00
00408              -0.60     9200.00
00409              19.40     9400.00
00410               0.40     9600.00
00411              -5.20    10000.00
00412              10.20     9800.00
00413               9.80    10000.00
00414              -0.20    10200.00
00415               3.60    10400.00
00416              10.60    10400.00
00417               5.20    10600.00
00418               0.60    10800.00
00419               9.00    10800.00
00420               8.80    11000.00
00421               1.00    11000.00
00422               7.60    11200.00
00423              11.00    11400.00
00424               3.00    11600.00
00425               5.00    11600.00
00426              11.80    11800.00
00427               6.00    11800.00
00428               3.60    11800.00
00429              11.80    12000.00
00430               9.40    12200.00
00431               4.80    12400.00
00432               9.80    12400.00
00433              10.80    12600.00
00434               7.40    12600.00
00435               9.20    12800.00
00436              11.60    12800.00
00437              10.20    13000.00
00438               9.20    13000.00
00439              11.60    13200.00
00440              12.40    13200.00
00441              10.20    13400.00
00442              11.60    13200.00
00443              14.20    13400.00
00444              13.20    13400.00
00445              12.20    13400.00
00446              14.60    13600.00
00447              15.20    13600.00
00448              13.80    13600.00
00449              15.40    13600.00
00450              17.20    13600.00
00451              16.20    13600.00
00452              16.40    13600.00
00453              18.60    14000.00
00454              19.00    13800.00
00455              18.60    14000.00
00456              20.40    14000.00
00457              21.20    14000.00
00458              20.20    14000.00
00459              22.00    14000.00
00460              22.00    14000.00
00461              23.00    14000.00
00462              24.20    14200.00
00463              22.80    14200.00
00464              24.40    14200.00
00465              25.00    14000.00
00466              24.20    14000.00
00467              24.80    14000.00
00468              25.00    14000.00
00469              23.80    14000.00
00470              23.00    14200.00
00471              24.60    14000.00
00472              22.20    14000.00
00473              20.40    14000.00
00474              21.40    14000.00
00475              20.20    14000.00
00476              18.60    14000.00
00477              18.00    14000.00
00478              17.80    14000.00
00479              17.00    13800.00
00480              16.40    13600.00
00481              16.20    13600.00
00482              15.40    13800.00
00483              14.20    13600.00
00484              14.60    13600.00
00485              13.60    13600.00
00486              13.00    13400.00
00487              13.20    13400.00
00488              12.60    13200.00
00489              12.20    13200.00
00490              11.80    13200.00
00491              11.20    13200.00
00492              10.80    13000.00
00493              10.80    12800.00
00494              10.20    12800.00
00495              10.00    12800.00
00496              10.00    12600.00
00497               9.40    12600.00
00498               8.80    12400.00
00499               9.00    12400.00
00500               8.40    12400.00
00501               8.20    12400.00
00502               8.20    12000.00
00503               7.80    12000.00
00504               7.60    11800.00
00505               6.80    11800.00
00506               7.40    11600.00
00507               7.00    11600.00
00508               6.60    11600.00
00509               6.80    11200.00
00510               6.00    11200.00
00511               6.00    11000.00
00512               6.00    11000.00
00513               5.80    10800.00
00514               5.20    10800.00
00515               5.20    10400.00
00516               5.40    10400.00
00517               5.20    10200.00
00518               4.40    10000.00
00519               5.00    10000.00
00520               4.40     9800.00
00521               4.60     9600.00
00522               5.00     9400.00
00523               3.00     9400.00
00524               4.60     9200.00
00525               4.60     8800.00
00526               2.60     8800.00
00527               3.80     8800.00
00528               4.60     8600.00
00529               2.60     8400.00
00530               3.40     8400.00
00531               4.20     8000.00
00532               2.60     8000.00
00533               2.20     7800.00
00534               3.80     7600.00
00535               2.60     7200.00
00536               2.00     7200.00
00537               3.40     7000.00
00538               2.60     6800.00
00539               1.80     6400.00
00540               3.00     6400.00
00541               2.60     6400.00
00542               1.60     6200.00
00543               2.20     6000.00
00544               2.40     5600.00
00545               1.80     5600.00
00546               1.60     5400.00
00547               1.80     5200.00
00548               1.80     4800.00
00549               1.20     4600.00
00550               1.20     4400.00
00551               1.60     4400.00
00552               1.20     4000.00
00553               1.00     3800.00
00554               1.40     3800.00
00555               1.00     3600.00
00556               0.40     3200.00
00557               1.00     3200.00
00558               0.60     3000.00
00559               0.60     2800.00
00560               0.40     2400.00
00561               0.20     2400.00
00562               1.00     2000.00
00563               0.40     2000.00
00564               0.20     1800.00
00565               0.20     1600.00
00566               0.20     1400.00
00567               0.20     1200.00
00568              -0.20      800.00
00569              -0.40      800.00
00570               0.20      600.00
00571              -0.20      400.00
00572              -0.40        0.00
00573              -0.60     -200.00
00574              -0.20     -400.00
00575               0.60     -400.00
00576               1.00     -800.00
00577              -2.00     -800.00
00578              -1.40    -1000.00
00579               0.80    -1400.00
00580              -0.60    -1600.00
00581              -1.00    -1600.00
00582              12.40    -1800.00
00583              23.00    -2400.00
00584             -25.00    -2600.00
00585             -25.00    -2800.00
00586               7.20    -2800.00
00587              25.00    -2600.00
00588              25.00    -3400.00
00589             -25.00    -3200.00
00590             -10.20    -3200.00
00591              25.00    -4200.00
00592             -25.00    -3800.00
00593             -25.00    -4000.00
00594              25.00    -4400.00
00595              -8.40    -4400.00
00596             -25.00    -4600.00
00597              25.00    -4600.00
00598             -25.00    -5000.00
00599              -5.00    -5600.00
00600             -10.00    -5600.00
00601              -3.60    -5600.00
00602              25.00    -6000.00
00603             -25.00    -6000.00
00604               4.80    -6400.00
00605              25.00    -6400.00
00606             -25.00    -6400.00
00607             -18.80    -7000.00
00608              22.00    -6800.00
00609              18.80    -7200.00
00610             -25.00    -7200.00
00611              -1.40    -7400.00
00612              25.00    -7800.00
00613             -25.00    -7800.00
00614             -10.00    -8200.00
00615              25.00    -8200.00
00616             -11.20    -8400.00
00617             -25.00    -8800.00
00618               8.40    -8800.00
00619              15.00    -9000.00
00620             -25.00    -9000.00
00621               2.60    -9200.00
00622              10.60    -9400.00
00623             -18.60    -9600.00
00624              -8.40    -9800.00
00625               3.40    -9800.00
00626              -3.80    -9800.00
00627             -15.00   -10200.00
00628               0.20   -10200.00
00629               1.20   -10400.00
00630             -13.40   -10600.00
00631              -9.60   -10800.00
00632               3.60   -10800.00
00633              -9.80   -10800.00
00634             -13.40   -11200.00
00635               3.00   -11200.00
00636              -7.40   -11200.00
00637             -14.20   -11400.00
00638              -4.60   -11400.00
00639              -1.20   -11800.00
00640             -15.60   -12000.00
00641             -10.00   -12000.00
00642               0.60   -12000.00
00643             -12.20   -12200.00
00644             -13.80   -12200.00
00645              -4.40   -12400.00
00646              -7.60   -12400.00
00647             -14.80   -12400.00
00648              -7.80   -12800.00
00649              -6.20   -12800.00
00650             -13.80   -12800.00
00651             -13.60   -13000.00
00652              -6.80   -13200.00
00653             -11.20   -13200.00
00654             -16.60   -13200.00
00655             -10.00   -13200.00
00656             -10.00   -13200.00
00657             -15.60   -13400.00
00658             -15.60   -13400.00
00659             -11.00   -13600.00
00660             -15.00   -13600.00
00661             -17.00   -13600.00
00662             -13.20   -13800.00
00663             -16.20   -13600.00
00664             -18.60   -13800.00
00665             -17.00   -13800.00
00666             -16.20   -13800.00
00667             -18.80   -13800.00
00668             -20.60   -13800.00
00669             -18.80   -14000.00
00670             -19.20   -13800.00
00671             -22.20   -14200.00
00672             -22.20   -14000.00
00673             -20.60   -14000.00
00674             -22.20   -14000.00
00675             -25.00   -14000.00
00676             -22.60   -14000.00
00677             -23.80   -14000.00
00678             -25.00   -14200.00
00679             -24.40   -14200.00
00680             -24.20   -14000.00
00681             -25.00   -14200.00
00682             -25.00   -14000.00
00683             -23.40   -14000.00
00684             -23.60   -14000.00
00685             -25.00   -14000.00
00686             -22.20   -14000.00
00687             -20.40   -14000.00
00688             -22.00   -14000.00
00689             -19.80   -14000.00
00690             -18.20   -14000.00
00691             -18.40   -14000.00
00692             -19.40   -13800.00
00693             -16.60   -13600.00
00694             -15.60   -13600.00
00695             -17.60   -13800.00
00696             -15.00   -13600.00
00697             -13.40   -13600.00
00698             -15.40   -13600.00
00699             -15.20   -13600.00
00700             -13.40   -13600.00
00701             -12.60   -13400.00
00702             -14.00   -13200.00
00703             -12.60   -13200.00
00704             -10.80   -13200.00
00705             -12.20   -13200.00
00706             -11.80   -13000.00
00707             -10.20   -12800.00
00708             -11.20   -13000.00
00709             -11.00   -12800.00
00710             -10.20   -12600.00
00711              -9.40   -12600.00
00712              -9.20   -12400.00
00713             -10.00   -12400.00
00714              -9.40   -12400.00
00715              -8.40   -12000.00
00716              -8.60   -12000.00
00717              -9.00   -12000.00
00718              -8.20   -12000.00
00719              -7.40   -11600.00
00720              -7.80   -11600.00
00721              -7.60   -11600.00
00722              -7.20   -11400.00
00723              -7.60   -11000.00
00724              -6.60   -11000.00
00725              -5.80   -11000.00
00726              -7.40   -10800.00
00727              -6.00   -10600.00
00728              -6.00   -10400.00
00729              -6.00   -10400.00
00730              -6.00   -10200.00
00731              -6.00   -10200.00
00732              -6.00   -10000.00
00733              -4.60    -9800.00
00734              -4.60    -9600.00
00735              -5.20    -9400.00
00736              -4.60    -9600.00
00737              -5.00    -9400.00
00738              -5.20    -9200.00
00739              -4.20    -9000.00
00740              -4.00    -8800.00
00741              -4.60    -8800.00
00742              -3.80    -8400.00
00743              -3.60    -8200.00
00744              -4.00    -8200.00
00745              -3.80    -8000.00
00746              -4.20    -8000.00
00747              -3.00    -7600.00
00748              -3.60    -7400.00
00749              -3.40    -7400.00
00750              -2.80    -7200.00
00751              -3.40    -6800.00
00752              -3.60    -6800.00
00753              -2.60    -6600.00
00754              -2.80    -6400.00
00755              -3.60    -6200.00
00756              -2.60    -6000.00
00757              -2.00    -5800.00
00758              -3.00    -5600.00
00759              -2.80    -5600.00
00760              -1.80    -5400.00
00761              -2.60    -5200.00
00762              -2.80    -4800.00
00763              -2.00    -4600.00
00764              -2.40    -4600.00
00765              -2.20    -4200.00
00766              -1.80    -4000.00
00767              -2.20    -3800.00
00768              -1.20    -3600.00
00769              -1.80    -3400.00
00770              -2.60    -3200.00
00771              -0.60    -3200.00
00772              -1.40    -3000.00
00773              -2.60    -2800.00
00774              -1.20    -2400.00
00775              -1.00    -2400.00
00776              -1.60    -2000.00
00777              -1.60    -1800.00
00778              -1.00    -1600.00
00779              -0.60    -1600.00
00780              -1.40    -1200.00
00781              -0.60    -1000.00
00782              -0.40     -800.00
00783              -1.00     -800.00
00784              -0.60     -400.00
00785              -0.20     -200.00
00786              -0.40        0.00
00787              -0.60      200.00
00788               0.40      400.00
00789               2.00      600.00
00790              -0.40      600.00
00791              -1.20      800.00
00792               1.20     1200.00
00793               1.40     1400.00
00794              -0.20     1600.00
00795               1.40     1800.00
00796               9.80     2000.00
00797              19.60     2400.00
00798             -19.60     2400.00
00799             -25.00     2800.00
00800               7.80     2800.00
00801               3.20     2800.00
00802              25.00     3200.00
00803               4.40     3400.00
00804             -25.00     3600.00
00805              25.00     3800.00
00806              25.00     3800.00
00807             -25.00     4000.00
00808              25.00     4400.00
00809              25.00     4400.00
00810             -25.00     4800.00
00811              17.20     5000.00
00812              25.00     5200.00
00813             -19.80     5600.00
00814               1.20     5600.00
00815               1.40     5600.00
00816              17.40     5800.00
00817              -8.20     6200.00
00818             -16.60     6200.00
00819              25.00     6600.00
00820              10.60     6800.00
00821             -23.00     7000.00
00822              -2.20     7000.00
00823              25.00     7200.00
00824              -7.00     7200.00
00825             -25.00     7600.00
00826              25.00     7800.00
00827              13.00     8000.00
00828             -25.00     8200.00
00829              13.80     8400.00
00830              20.80     8400.00
00831             -18.00     8600.00
00832               0.20     8800.00
00833              25.00     8800.00
00834              -6.40     9200.00
00835              -6.60     9200.00
00836              18.80     9600.00
00837               4.60     9600.00
00838              -6.60     9600.00
00839               7.00     9800.00
00840              12.00    10000.00
00841               0.40    10000.00
00842               2.00    10200.00
00843              10.00    10400.00
00844               6.80    10400.00
00845               0.60    10800.00
00846               6.80    10800.00
00847              10.00    11000.00
00848               2.00    11200.00
00849               6.00    11200.00
00850              11.40    11200.00
00851               4.60    11400.00
00852               4.20    11600.00
00853              10.60    11800.00
00854               7.80    11800.00
00855               3.40    12200.00
00856              10.60    12200.00
00857              10.80    12200.00
00858               5.20    12400.00
00859               8.60    12400.00
00860              11.20    12600.00
00861               8.20    12600.00
00862               9.00    12800.00
00863              11.80    12800.00
00864              11.00    12800.00
00865               9.20    13000.00
00866              11.40    13200.00
00867              13.20    13000.00
00868              10.60    13200.00
00869              10.60    13200.00
00870              14.60    13400.00
00871              13.80    13400.00
00872              11.60    13600.00
00873              14.40    13600.00
00874              15.80    13800.00
00875              14.00    13600.00
00876              15.40    13800.00
00877              17.20    13600.00
00878              16.20    13800.00
00879              16.40    13800.00
00880              18.80    13800.00
00881              19.00    13800.00
00882              18.00    14000.00
00883              19.60    13800.00
00884              21.20    14000.00
00885              21.00    14000.00
00886              21.00    14000.00
00887              22.20    14200.00
00888              23.00    14000.00
00889              23.00    14200.00
00890              23.60    14200.00
00891              24.00    14200.00
00892              24.40    14000.00
00893              25.00    14000.00
00894              25.00    14000.00
00895              25.00    14000.00
00896              24.60    14200.00
00897              23.80    14000.00
00898              23.40    14000.00
00899              22.40    14000.00
00900              21.20    14000.00
00901              20.40    14000.00
00902              19.60    13800.00
00903              19.00    14000.00
00904              18.40    14000.00
00905              17.60    13800.00
00906              16.60    13800.00
00907              16.60    13600.00
00908              15.40    13800.00
00909              14.20    13600.00
00910              14.60    13600.00
00911              15.40    13600.00
00912              13.40    13400.00
00913              13.40    13400.00
00914              13.00    13400.00
00915              12.20    13400.00
00916              11.60    13200.00
00917              12.20    13200.00
00918              11.00    13200.00
00919              10.80    13200.00
00920              10.80    13200.00
00921              10.60    12800.00
00922              10.00    12800.00
00923              10.00    12800.00
00924               9.40    12600.00
00925               9.00    12600.00
00926               9.40    12600.00
00927               8.80    12400.00
00928               8.00    12400.00
00929               8.60    12000.00
00930               8.40    12000.00
00931               7.40    11800.00
00932               7.20    11800.00
00933               7.60    11800.00
00934               7.40    11400.00
00935               6.00    11600.00
00936               6.20    11200.00
00937               7.00    11000.00
00938               6.00    11000.00
00939               5.80    10800.00
00940               6.60    10800.00
00941               5.80    10600.00
00942               5.20    10400.00
00943               5.80    10400.00
00944               5.20    10200.00
00945               4.40    10000.00
00946               5.00    10000.00
00947               4.60     9800.00
00948               4.40     9600.00
00949               4.40     9400.00
00950               4.40     9400.00
00951               3.80     9200.00
00952               3.40     9000.00
00953               3.60     8800.00
00954               3.60     8600.00
00955               3.60     8600.00
00956               3.40     8400.00
00957               3.60     8200.00
00958               3.40     8000.00
00959               2.80     8000.00
00960               2.40     7800.00
00961               2.80     7400.00
00962               2.60     7200.00
00963               2.60     7200.00
00964               2.40     7000.00
00965               2.60     6800.00
00966               2.00     6600.00
00967               2.00     6400.00
00968               2.00     6400.00
00969               1.80     6000.00
00970               2.20     5800.00
00971               2.20     5800.00
00972               1.40     5600.00
00973               1.40     5400.00
00974               1.60     5400.00
00975               1.80     5000.00
00976               1.40     4800.00
00977               1.40     4600.00
00978               1.20     4400.00
00979               1.20     4000.00
00980               1.00     4000.00
00981               1.00     3800.00
00982               1.20     3600.00
00983               0.60     3200.00
00984               1.00     3200.00
00985               1.00     3000.00
00986               0.80     2800.00
00987               0.60     2400.00
00988               0.80     2400.00
00989               0.40     2200.00
00990               0.60     2000.00
00991               0.40     1800.00
00992               0.20     1600.00
00993              -0.20     1400.00
00994               0.40     1200.00
00995               0.80      800.00
00996              -0.20      600.00
00997              -0.40      600.00
00998               0.60      400.00
00999              -0.20      200.00
01000              -0.20     -200.00
01001              -0.60     -400.00
01002               1.20     -400.00
01003               2.00     -600.00
01004              -1.60     -800.00
01005              -1.40    -1000.00
01006               1.40    -1200.00
01007              -0.40    -1400.00
01008              -2.00    -1600.00
01009               8.20    -1800.00
01010              25.00    -2200.00
01011             -25.00    -2400.00
01012             -25.00    -2800.00
01013               6.80    -2600.00
01014              13.80    -2400.00
01015              25.00    -3200.00
01016             -25.00    -3400.00
01017             -25.00    -3200.00
01018              25.00    -4000.00
01019              -0.20    -4000.00
01020             -25.00    -3800.00
01021              25.00    -4400.00
01022              25.00    -4400.00
01023             -25.00    -4400.00
01024              25.00    -5000.00
01025              -6.80    -5000.00
01026             -19.60    -5400.00
01027               1.80    -5600.00
01028             -19.60    -5600.00
01029              25.00    -6200.00
01030             -25.00    -5800.00
01031             -23.00    -6400.00
01032              25.00    -6400.00
01033             -25.00    -6400.00
01034             -25.00    -7000.00
01035              15.20    -6800.00
01036              25.00    -7200.00
01037             -25.00    -7400.00
01038             -22.80    -7600.00
01039              25.00    -8000.00
01040             -25.00    -8000.00
01041             -25.00    -8200.00
01042              25.00    -8200.00
01043              -2.60    -8400.00
01044             -25.00    -8800.00
01045              -0.60    -8800.00
01046              22.00    -9000.00
01047             -25.00    -9000.00
01048              -7.40    -9200.00
01049              15.80    -9600.00
01050             -15.40    -9600.00
01051             -11.60    -9600.00
01052               1.40    -9800.00
01053               1.20   -10000.00
01054             -15.00   -10000.00
01055              -4.60   -10200.00
01056               3.00   -10400.00
01057              -9.40   -10600.00
01058             -11.80   -10800.00
01059               0.40   -10800.00
01060              -4.00   -11000.00
01061             -15.60   -11000.00
01062               0.20   -11400.00
01063              -4.00   -11200.00
01064             -13.00   -11400.00
01065              -6.60   -11600.00
01066              -1.80   -11800.00
01067             -11.60   -12000.00
01068             -12.20   -12000.00
01069              -0.60   -12000.00
01070              -9.20   -12200.00
01071             -13.40   -12400.00
01072              -6.00   -12400.00
01073              -6.80   -12400.00
01074             -13.80   -12600.00
01075              -9.40   -12600.00
01076              -6.60   -12800.00
01077             -12.20   -12800.00
01078             -13.40   -12800.00
01079              -8.40   -13200.00
01080             -10.20   -13200.00
01081             -16.00   -13000.00
01082             -11.00   -13200.00
01083             -10.20   -13200.00
01084             -15.00   -13200.00
01085             -14.80   -13400.00
01086             -12.40   -13600.00
01087             -14.20   -13600.00
01088             -17.20   -13600.00
01089             -14.60   -13600.00
01090             -15.00   -13800.00
01091             -18.20   -13600.00
01092             -17.20   -13800.00
01093             -17.20   -13800.00
01094             -18.60   -14000.00
01095             -19.80   -14000.00
01096             -19.80   -14000.00
01097             -19.20   -13800.00
01098             -21.20   -14000.00
01099             -22.80   -14200.00
01100             -21.80   -14000.00
01101             -22.00   -14000.00
01102             -24.20   -14000.00
01103             -24.60   -14000.00
01104             -23.40   -14000.00
01105             -25.00   -14000.00
01106             -25.00   -14200.00
01107             -24.40   -14200.00
01108             -25.00   -14000.00
01109             -25.00   -14000.00
01110             -25.00   -14200.00
01111             -23.80   -14000.00
01112             -23.80   -14000.00
01113             -23.40   -14000.00
01114             -21.80   -14000.00
01115             -20.40   -14000.00
01116             -19.80   -14000.00
01117             -19.40   -14000.00
01118             -19.00   -14000.00
01119             -17.80   -14000.00
01120             -17.00   -13800.00
01121             -17.00   -13800.00
01122             -16.40   -13600.00
01123             -15.00   -13600.00
01124             -15.00   -13600.00
01125             -15.00   -13600.00
01126             -13.40   -13600.00
01127             -14.00   -13400.00
01128             -14.00   -13400.00
01129             -11.80   -13200.00
01130             -11.80   -13200.00
01131             -12.60   -13200.00
01132             -12.20   -13000.00
01133             -11.00   -13000.00
01134             -10.80   -12800.00
01135             -11.60   -12800.00
01136             -10.80   -12800.00
01137              -9.60   -12600.00
01138              -9.80   -12800.00
01139             -10.00   -12400.00
01140              -9.40   -12200.00
01141              -9.00   -12400.00
01142              -8.60   -12200.00
01143              -8.80   -12200.00
01144              -8.60   -12000.00
01145              -8.20   -12000.00
01146              -7.80   -11600.00
01147              -8.40   -11600.00
01148              -7.40   -11600.00
01149              -7.00   -11400.00
01150              -7.80   -11400.00
01151              -7.60   -11200.00
01152              -5.20   -11000.00
01153              -7.40   -10800.00
01154              -7.00   -10800.00
01155              -5.80   -10600.00
01156              -6.00   -10400.00
01157              -6.20   -10200.00
01158              -5.80   -10200.00
01159              -5.80   -10000.00
01160              -5.00   -10000.00
01161              -5.40    -9800.00
01162              -5.20    -9600.00
01163              -5.20    -9400.00
01164              -5.00    -9200.00
01165              -5.20    -9200.00
01166              -4.60    -9000.00
01167              -3.80    -8800.00
01168              -4.40    -8600.00
01169              -4.20    -8400.00
01170              -3.60    -8400.00
01171              -4.40    -8200.00
01172              -4.40    -8000.00
01173              -3.00    -7800.00
01174              -3.40    -7600.00
01175              -3.40    -7600.00
01176              -3.40    -7400.00
01177              -3.40    -7200.00
01178              -3.00    -6800.00
01179              -3.00    -6800.00
01180              -3.00    -6600.00
01181              -2.80    -6400.00
01182              -2.80    -6200.00
01183              -2.80    -6000.00
01184              -2.00    -5800.00
01185              -2.60    -5600.00
01186              -2.80    -5600.00
01187              -1.80    -5200.00
01188              -2.20    -5000.00
01189              -2.20    -4800.00
01190              -1.80    -4600.00
01191              -2.00    -4600.00
01192              -2.20    -4200.00
01193              -2.00    -4200.00
01194              -1.80    -4000.00
01195              -1.40    -3800.00
01196              -1.60    -3400.00
01197              -1.80    -3400.00
01198              -1.20    -3200.00
01199              -1.60    -3000.00
01200              -1.40    -2800.00
01201              -0.60    -2600.00
01202              -1.40    -2400.00
01203              -0.60    -2000.00
01204              -0.60    -2000.00
01205              -1.80    -1800.00
01206              -0.60    -1600.00
01207              -0.80    -1200.00
01208              -1.20    -1000.00
01209              -0.60     -800.00
01210              -0.40     -600.00
01211              -1.20     -400.00
01212               0.40     -200.00
01213              -1.00        0.00
01214              -1.40        0.00
01215               1.40      400.00
01216               1.20      400.00
01217              -0.20      600.00
01218              -0.40      800.00
01219               0.60     1200.00
01220               1.00     1400.00
01221              -0.40     1400.00
01222               1.80     1800.00
01223               5.80     2000.00
01224              20.20     2400.00
01225              -9.00     2400.00
01226             -25.00     2800.00
01227               3.40     2800.00
01228               5.80     2800.00
01229              19.60     3200.00
01230              22.80     3400.00
01231             -25.00     3400.00
01232              25.00     4000.00
01233              25.00     3800.00
01234             -25.00     4000.00
01235               1.60     4400.00
01236              25.00     4400.00
01237             -25.00     4600.00
01238             -16.60     5200.00
01239              25.00     5200.00
01240              -9.40     5400.00
01241              -5.80     5600.00
01242               9.20     5600.00
01243              11.80     6000.00
01244               1.40     6000.00
01245             -25.00     6400.00
01246              25.00     6400.00
01247              14.40     6800.00
01248             -21.40     6800.00
01249              -0.60     7000.00
01250              25.00     7400.00
01251               3.40     7400.00
01252             -25.00     7600.00
01253              22.60     8000.00
01254              17.80     8200.00
01255             -25.00     8000.00
01256               2.80     8400.00
01257              25.00     8400.00
01258              -6.60     8800.00
01259              -9.00     8800.00
01260              25.00     9000.00
01261               2.60     9200.00
01262             -14.00     9200.00
01263              13.00     9200.00
01264              10.20     9400.00
01265              -6.20     9800.00
01266               4.40    10000.00
01267              13.80    10000.00
01268               5.20    10200.00
01269              -0.60    10400.00
01270               7.00    10400.00
01271               9.60    10400.00
01272              -0.80    10800.00
01273               3.80    10800.00
01274              12.60    10800.00
01275               2.60    11000.00
01276               3.40    11200.00
01277              13.20    11200.00
01278               6.60    11600.00
01279               1.80    11600.00
01280              10.60    11800.00
01281               9.20    11800.00
01282               1.20    12000.00
01283              10.20    12000.00
01284              12.20    12000.00
01285               3.40    12400.00
01286               8.00    12400.00
01287              12.80    12600.00
01288               7.80    12600.00
01289               7.80    12600.00
01290              12.20    12800.00
01291              10.20    12800.00
01292               8.40    12800.00
01293              10.80    13000.00
01294              13.00    13200.00
01295              10.60    13200.00
01296              10.40    13200.00
01297              14.20    13200.00
01298              13.80    13400.00
01299              12.20    13200.00
01300              13.40    13600.00
01301              15.00    13600.00
01302              13.80    13600.00
01303              15.00    13600.00
01304              17.20    13600.00
01305              16.20    13600.00
01306              16.60    13600.00
01307              19.00    13800.00
01308              18.80    14000.00
01309              17.40    14000.00
01310              19.40    14000.00
01311              21.00    14000.00
01312              21.00    14000.00
01313              21.20    14200.00
01314              22.60    14000.00
01315              23.00    14000.00
01316              23.00    14000.00
01317              23.60    14200.00
01318              24.20    14200.00
01319              24.40    14000.00
01320              25.00    14000.00
01321              25.00    14200.00
01322              25.00    14200.00
01323              24.60    14200.00
01324              24.20    14200.00
01325              24.20    14000.00
01326              22.80    14000.00
01327              21.20    14000.00
01328              21.00    14000.00
01329              20.20    14000.00
01330              19.20    14000.00
01331              18.00    14000.00
01332              18.20    14000.00
01333              17.20    14000.00
01334              17.00    13600.00
01335              15.40    13800.00
01336              15.00    13600.00
01337              14.80    13600.00
01338              14.80    13400.00
01339              13.00    13600.00
01340              14.00    13400.00
01341              12.60    13400.00
01342              12.20    13200.00
01343              12.40    13200.00
01344              12.20    13200.00
01345              11.00    13200.00
01346              10.60    13000.00
01347              10.80    13000.00
01348              10.60    12800.00
01349              10.00    12800.00
01350               9.60    12600.00
01351               9.80    12600.00
01352               9.20    12600.00
01353               9.00    12400.00
01354               8.80    12400.00
01355               8.20    12200.00
01356               7.80    12000.00
01357               8.20    12000.00
01358               7.80    11800.00
01359               7.00    11800.00
01360               7.60    11800.00
01361               7.40    11600.00
01362               6.60    11600.00
01363               6.00    11400.00
01364               6.60    11200.00
01365               6.40    11000.00
01366               5.80    11000.00
01367               6.40    10800.00
01368               6.20    10600.00
01369               5.00    10400.00
01370               5.60    10400.00
01371               5.40    10400.00
01372               4.60    10200.00
01373               4.80    10000.00
01374               4.40     9800.00
01375               5.20     9600.00
01376               5.00     9400.00
01377               3.60     9400.00
01378               4.20     9200.00
01379               4.80     9200.00
01380               3.40     9000.00
01381               3.40     8800.00
01382               4.20     8600.00
01383               3.00     8400.00
01384               3.00     8200.00
01385               3.60     8200.00
01386               3.40     8000.00
01387               3.00     7800.00
01388               3.00     7600.00
01389               3.00     7600.00
01390               2.80     7400.00
01391               2.60     7000.00
01392               2.80     6800.00
01393               2.20     6600.00
01394               2.60     6400.00
01395               1.80     6200.00
01396               2.60     6200.00
01397               2.00     6000.00
01398               2.20     5800.00
01399               1.80     5600.00
01400               2.60     5400.00
01401               1.40     5200.00
01402               1.40     4800.00
01403               1.80     4800.00
01404               1.80     4600.00
01405               1.20     4400.00
01406               1.20     4200.00
01407               1.80     4000.00
01408               0.60     3800.00
01409               0.40     3600.00
01410               1.00     3400.00
01411               1.80     3200.00
01412               0.40     3000.00
01413              -0.60     2800.00
01414               1.00     2800.00
01415               2.00     2400.00
01416              -0.40     2200.00
01417              -0.40     2000.00
01418               1.60     1800.00
01419              -0.60     1600.00
01420              -1.00     1400.00
01421               1.00     1200.00
01422               0.40     1000.00
01423              -0.80      800.00
01424              -0.20      400.00
01425               0.20      400.00
01426              -0.60        0.00
01427              -0.20        0.00
01428               0.00     -200.00
01429               0.20     -400.00
01430               1.40     -800.00
01431              -0.60    -1000.00
01432              -2.20    -1000.00
01433               0.20    -1200.00
01434               1.00    -1400.00
01435              -1.00    -1600.00
01436               3.40    -1800.00
01437              25.00    -2000.00
01438             -16.20    -2400.00
01439             -25.00    -2800.00
01440               1.60    -2800.00
01441               7.00    -2600.00
01442              25.00    -2800.00
01443             -25.00    -3400.00
01444             -25.00    -3000.00
01445              25.00    -3600.00
01446              25.00    -4000.00
01447             -25.00    -3800.00
01448              25.00    -4400.00
01449              25.00    -4400.00
01450             -25.00    -4400.00
01451              25.00    -5000.00
01452              22.40    -4600.00
01453             -25.00    -5200.00
01454              10.00    -5400.00
01455             -25.00    -5600.00
01456              25.00    -6000.00
01457             -21.80    -6000.00
01458             -25.00    -6200.00
01459              25.00    -6400.00
01460              -9.20    -6400.00
01461             -25.00    -6800.00
01462               8.60    -7000.00
01463              25.00    -7200.00
01464             -22.80    -7200.00
01465             -25.00    -7400.00
01466              25.00    -7800.00
01467              -8.60    -8000.00
01468             -25.00    -8200.00
01469              24.60    -8200.00
01470               6.20    -8400.00
01471             -25.00    -8800.00
01472             -10.00    -8800.00
01473              24.20    -8800.00
01474             -18.20    -9000.00
01475             -17.40    -9200.00
01476              17.40    -9600.00
01477             -10.60    -9600.00
01478             -14.80    -9800.00
01479              -1.20    -9800.00
01480               3.60   -10000.00
01481             -13.00   -10000.00
01482              -8.60   -10200.00
01483               3.60   -10400.00
01484              -7.60   -10600.00
01485             -13.20   -10600.00
01486              -2.20   -10800.00
01487              -1.20   -11000.00
01488             -15.60   -11000.00
01489              -2.80   -11200.00
01490              -2.20   -11200.00
01491             -12.20   -11400.00
01492              -8.20   -11600.00
01493              -2.20   -11600.00
01494              -9.60   -11800.00
01495             -13.20   -12000.00
01496              -2.20   -12000.00
01497              -7.40   -12200.00
01498             -13.40   -12400.00
01499              -7.00   -12400.00
01500              -6.20   -12600.00
01501             -12.80   -12600.00
01502             -11.00   -12600.00
01503              -6.40   -12800.00
01504             -10.80   -12800.00
01505             -14.00   -13000.00
01506              -9.00   -13000.00
01507              -9.20   -13000.00
01508             -15.40   -13200.00
01509             -11.80   -13200.00
01510             -11.00   -13400.00
01511             -12.40   -13200.00
01512             -15.40   -13400.00
01513             -13.80   -13600.00
01514             -11.80   -13600.00
01515             -17.00   -13600.00
01516             -15.60   -13600.00
01517             -13.80   -13600.00
01518             -17.40   -13600.00
01519             -18.00   -13800.00
01520             -16.00   -13800.00
01521             -17.60   -13800.00
01522             -20.60   -13800.00
01523             -19.40   -14000.00
01524             -18.00   -13800.00
01525             -21.40   -14000.00
01526             -22.20   -14000.00
01527             -21.00   -14000.00
01528             -22.20   -14000.00
01529             -23.60   -14000.00
01530             -23.60   -14000.00
01531             -24.20   -14000.00
01532             -24.40   -14200.00
01533             -25.00   -14000.00
01534             -25.00   -14000.00
01535             -25.00   -14000.00
01536             -25.00   -14200.00
01537             -25.00   -14000.00
01538             -24.20   -14200.00
01539             -23.80   -14000.00
01540             -23.40   -14000.00
01541             -22.00   -14000.00
01542             -20.60   -14000.00
01543             -20.20   -14000.00
01544             -20.20   -13800.00
01545             -18.80   -13800.00
01546             -17.80   -13800.00
01547             -18.20   -13800.00
01548             -16.60   -13800.00
01549             -15.60   -13800.00
01550             -16.20   -13800.00
01551             -15.60   -13600.00
01552             -14.20   -13600.00
01553             -14.20   -13600.00
01554             -14.60   -13600.00
01555             -13.40   -13600.00
01556             -12.40   -13200.00
01557             -12.60   -13400.00
01558             -12.40   -13200.00
01559             -12.20   -13200.00
01560             -11.60   -13200.00
01561             -11.00   -13000.00
01562             -11.00   -13000.00
01563             -10.60   -12800.00
01564             -10.20   -12800.00
01565             -10.20   -12400.00
01566              -9.40   -12600.00
01567              -9.40   -12400.00
01568              -9.80   -12400.00
01569              -8.80   -12200.00
01570              -8.20   -12200.00
01571              -8.60   -12000.00
01572              -9.00   -12000.00
01573              -7.60   -12000.00
01574              -7.60   -11600.00
01575              -7.60   -11600.00
01576              -7.00   -11400.00
01577              -7.00   -11200.00
01578              -7.00   -11000.00
01579              -6.00   -11000.00
01580              -7.40   -11000.00
01581              -6.60   -10800.00
01582              -6.20   -10600.00
01583              -6.00   -10400.00
01584              -5.80   -10400.00
01585              -5.20   -10400.00
01586              -5.80   -10000.00
01587              -5.20   -10000.00
01588              -5.00    -9800.00
01589              -5.00    -9600.00
01590              -5.40    -9600.00
01591              -5.00    -9200.00
01592              -4.60    -9200.00
01593              -4.60    -9000.00
01594              -4.40    -9000.00
01595              -4.40    -8800.00
01596              -4.40    -8400.00
01597              -3.80    -8400.00
01598              -3.80    -8200.00
01599              -4.00    -8000.00
01600              -3.60    -8000.00
01601              -3.80    -7600.00
01602              -3.00    -7600.00
01603              -3.80    -7400.00
01604              -3.00    -7200.00
01605              -3.00    -7000.00
01606              -4.20    -6800.00
01607              -2.40    -6600.00
01608              -2.20    -6400.00
01609              -4.20    -6400.00
01610              -3.00    -6000.00
01611              -1.40    -5800.00
01612              -3.60    -5800.00
01613              -3.40    -5600.00
01614              -1.40    -5200.00
01615              -2.60    -5200.00
01616              -3.00    -5000.00
01617              -1.20    -4600.00
01618              -2.00    -4400.00
01619              -3.00    -4400.00
01620              -1.20    -4200.00
01621              -1.20    -4000.00
01622              -2.60    -3800.00
01623              -2.00    -3600.00
01624              -1.20    -3400.00
01625              -1.60    -3400.00
01626              -1.80    -3000.00
01627              -1.40    -2800.00
01628              -1.00    -2600.00
01629              -1.40    -2400.00
01630              -1.40    -2000.00
01631              -0.40    -2000.00
01632              -1.60    -1800.00
01633              -1.00    -1600.00
01634              -0.40    -1400.00
01635              -1.40    -1000.00
01636              -0.40    -1000.00
01637              -0.60     -800.00
01638              -0.60     -400.00
01639               0.20     -200.00
01640              -0.60     -200.00
01641              -0.60        0.00
01642               1.00      400.00
01643               1.40      400.00
01644               0.20      600.00
01645              -0.20      800.00
01646               0.40      800.00
01647               0.60     1400.00
01648               0.80     1400.00
01649               0.40     1800.00
01650               4.60     2000.00
01651              19.00     2200.00
01652               0.60     2400.00
01653             -25.00     2400.00
01654              -4.20     2800.00
01655               8.00     2800.00
01656               9.80     3200.00
01657              25.00     3200.00
01658             -25.00     3200.00
01659               4.80     3800.00
01660              25.00     3800.00
01661             -25.00     4000.00
01662             -25.00     4400.00
01663              25.00     4400.00
01664             -25.00     4600.00
01665             -25.00     4800.00
01666              25.00     5000.00
01667             -11.60     5200.00
01668              -5.00     5600.00
01669               0.40     5600.00
01670              10.80     5600.00
01671               9.40     6000.00
01672             -25.00     6400.00
01673              12.60     6400.00
01674              25.00     6800.00
01675             -14.60     6800.00
01676             -17.20     7000.00
01677              23.40     7200.00
01678              17.20     7400.00
01679             -25.00     7600.00
01680               8.60     7800.00
01681              25.00     8200.00
01682             -20.20     8200.00
01683              -5.40     8200.00
01684              25.00     8400.00
01685              -4.60     8600.00
01686             -15.60     8800.00
01687              23.40     9000.00
01688               8.60     9000.00
01689             -15.00     9200.00
01690              12.60     9400.00
01691              14.00     9400.00
01692              -6.60     9600.00
01693               1.20    10000.00
01694              13.20    10000.00
01695               4.80    10000.00
01696               0.00    10400.00
01697               7.40    10400.00
01698               9.20    10400.00
01699               1.80    10600.00
01700               3.00    10800.00
01701              11.60    10800.00
01702               4.40    11000.00
01703               2.20    11200.00
01704              11.80    11200.00
01705               7.80    11200.00
01706               1.60    11600.00
01707               9.40    11800.00
01708              11.00    11800.00
01709               2.80    12000.00
01710               7.40    12200.00
01711              13.00    12200.00
01712               6.80    12400.00
01713               5.80    12400.00
01714              12.20    12600.00
01715               9.40    12600.00
01716               6.60    12600.00
01717              11.60    12600.00
01718              11.60    12800.00
01719               8.40    12800.00
01720              10.80    13000.00
01721              13.40    13200.00
01722              11.20    13200.00
01723              10.00    13200.00
01724              13.60    13200.00
01725              14.80    13400.00
01726              11.40    13400.00
01727              13.60    13400.00
01728              16.60    13600.00
01729              14.00    13400.00
01730              13.20    13600.00
01731              18.00    13600.00
01732              16.20    13800.00
01733              15.40    14000.00
01734              18.40    13800.00
01735              19.20    13800.00
01736              17.40    13800.00
01737              19.00    14000.00
01738              21.20    13800.00
01739              20.60    14000.00
01740              21.00    14000.00
01741              22.00    14200.00
01742              23.00    14000.00
01743              22.80    14000.00
01744              22.80    14200.00
01745              24.40    14200.00
01746              24.60    14200.00
01747              23.80    14200.00
01748              25.00    14000.00
01749              25.00    14200.00
01750              23.60    14000.00
01751              24.20    14000.00
01752              24.40    14200.00
01753              22.60    14000.00
01754              21.60    14000.00
01755              21.80    14000.00
01756              20.20    14000.00
01757              18.80    14000.00
01758              19.40    14000.00
01759              18.00    14000.00
01760              16.20    13800.00
01761              17.20    13600.00
01762              15.80    13800.00
01763              14.40    13600.00
01764              14.80    13600.00
01765              16.00    13600.00
01766              13.20    13600.00
01767              13.40    13600.00
01768              13.80    13400.00
01769              12.60    13400.00
01770              11.60    13200.00
01771              12.60    13200.00
01772              11.60    13200.00
01773              10.60    13200.00
01774              10.80    13000.00
01775              11.60    12800.00
01776              10.00    12800.00
01777               9.40    12600.00
01778              10.20    12800.00
01779               9.40    12400.00
01780               8.40    12400.00
01781               9.00    12400.00
01782               9.00    12400.00
01783               7.60    12000.00
01784               8.00    12000.00
01785               8.40    12000.00
01786               7.20    11800.00
01787               7.00    11800.00
01788               7.60    11600.00
01789               7.40    11400.00
01790               6.20    11400.00
01791               6.60    11200.00
01792               6.60    11200.00
01793               5.80    11000.00
01794               5.80    10800.00
01795               6.00    10800.00
01796               5.40    10400.00
01797               5.20    10400.00
01798               5.20    10200.00
01799               5.40    10200.00
01800               4.60    10000.00
01801               4.20     9800.00
01802               5.00     9600.00
01803               4.60     9600.00
01804               3.60     9400.00
01805               3.80     9200.00
01806               4.40     9200.00
01807               3.60     9000.00
01808               3.20     8800.00
01809               4.20     8600.00
01810               3.40     8400.00
01811               2.80     8400.00
01812               3.60     8200.00
01813               3.00     8000.00
01814               2.40     7800.00
01815               3.00     7600.00
01816               2.80     7200.00
01817               2.60     7200.00
01818               2.60     7200.00
01819               2.60     6800.00
01820               2.20     6800.00
01821               2.20     6400.00
01822               2.20     6200.00
01823               2.00     6200.00
01824               2.00     6000.00
01825               2.00     6000.00
01826               2.00     5600.00
01827               1.80     5400.00
01828               1.60     5200.00
01829               1.80     5000.00
01830               1.40     4800.00
01831               1.40     4600.00
01832               1.20     4400.00
01833               1.20     4200.00
01834               1.80     4000.00
01835               1.00     4000.00
01836               1.20     3600.00
01837               1.60     3600.00
01838               0.40     3200.00
01839               0.40     3000.00
01840               1.60     2800.00
01841               0.40     2800.00
01842               0.20     2400.00
01843               1.20     2400.00
01844               0.40     2000.00
01845               0.20     2000.00
01846               0.40     1800.00
01847               0.20     1400.00
01848               0.20     1200.00
01849               0.20     1200.00
01850               0.40      800.00
01851              -0.40      600.00
01852               0.00      400.00
01853               0.20      200.00
01854              -0.20        0.00
01855              -0.80     -200.00
01856               0.40     -400.00
01857               1.40     -600.00
01858              -0.40     -800.00
01859              -1.80     -800.00
01860              -0.20    -1200.00
01861               0.20    -1600.00
01862              -1.20    -1600.00
01863               1.80    -1600.00
01864              25.00    -2200.00
01865              -3.00    -2400.00
01866             -25.00    -2600.00
01867              -5.00    -2800.00
01868               4.20    -2600.00
01869              25.00    -2800.00
01870               7.40    -3400.00
01871             -25.00    -3000.00
01872              25.00    -3400.00
01873              25.00    -4000.00
01874             -25.00    -3800.00
01875              22.60    -4200.00
01876              25.00    -4400.00
01877             -25.00    -4400.00
01878              23.40    -4800.00
01879              25.00    -4800.00
01880             -25.00    -5000.00
01881              12.00    -5400.00
01882             -25.00    -5600.00
01883              25.00    -6000.00
01884               6.20    -5800.00
01885             -25.00    -6000.00
01886              25.00    -6600.00
01887              13.20    -6400.00
01888             -25.00    -6800.00
01889               0.80    -7200.00
01890              25.00    -7000.00
01891              -7.00    -7400.00
01892             -25.00    -7200.00
01893              25.00    -7800.00
01894              13.00    -8000.00
01895             -25.00    -8000.00
01896              17.40    -8400.00
01897              14.20    -8400.00
01898             -22.40    -8600.00
01899             -17.40    -8600.00
01900              22.60    -8800.00
01901              -7.60    -9000.00
01902             -25.00    -9200.00
01903              16.60    -9400.00
01904              -4.40    -9400.00
01905             -16.80    -9600.00
01906              -3.00    -9800.00
01907               4.20   -10000.00
01908              -9.40   -10000.00
01909             -11.60   -10200.00
01910               3.60   -10400.00
01911              -4.40   -10400.00
01912             -13.20   -10600.00
01913              -4.60   -10800.00
01914               1.20   -11000.00
01915             -14.60   -10800.00
01916              -6.00   -11000.00
01917               0.40   -11200.00
01918             -11.60   -11400.00
01919             -10.00   -11400.00
01920              -2.20   -11600.00
01921              -7.00   -12000.00
01922             -15.00   -12000.00
01923              -3.00   -12000.00
01924              -4.60   -12200.00
01925             -14.60   -12200.00
01926              -8.60   -12400.00
01927              -4.60   -12400.00
01928             -12.40   -12400.00
01929             -12.20   -12600.00
01930              -6.20   -12800.00
01931             -10.20   -12800.00
01932             -14.00   -12800.00
01933             -10.00   -13000.00
01934              -8.40   -13200.00
01935             -15.00   -13000.00
01936             -13.40   -13200.00
01937              -9.60   -13400.00
01938             -13.20   -13200.00
01939             -15.60   -13400.00
01940             -13.40   -13600.00
01941             -12.60   -13600.00
01942             -16.60   -13600.00
01943             -15.80   -13600.00
01944             -14.00   -13800.00
01945             -17.20   -13800.00
01946             -18.20   -13800.00
01947             -16.60   -13800.00
01948             -17.40   -13800.00
01949             -20.20   -14000.00
01950             -20.00   -13800.00
01951             -18.80   -14000.00
01952             -20.60   -13800.00
01953             -22.60   -14000.00
01954             -21.40   -14000.00
01955             -21.80   -14000.00
01956             -23.40   -14000.00
01957             -24.20   -14000.00
01958             -23.80   -14000.00
01959             -24.40   -14200.00
01960             -25.00   -14000.00
01961             -25.00   -14400.00
01962             -24.60   -14000.00
01963             -25.00   -14000.00
01964             -25.00   -14200.00
01965             -23.80   -14200.00
01966             -23.60   -14200.00
01967             -23.80   -14200.00
01968             -22.00   -14000.00
01969             -21.00   -13800.00
01970             -20.20   -14000.00
01971             -19.60   -14000.00
01972             -18.80   -14000.00
01973             -18.00   -13800.00
01974             -17.60   -13800.00
01975             -16.60   -13800.00
01976             -16.00   -13800.00
01977             -16.40   -13600.00
01978             -15.40   -13600.00
01979             -14.00   -13600.00
01980             -14.60   -13600.00
01981             -14.80   -13600.00
01982             -12.40   -13400.00
01983             -12.60   -13200.00
01984             -13.40   -13200.00
01985             -12.20   -13200.00
01986             -11.80   -13200.00
01987             -12.20   -13000.00
01988             -11.00   -13000.00
01989             -10.20   -12800.00
01990             -11.00   -12800.00
01991             -10.60   -12800.00
01992             -10.00   -12600.00
01993             -10.20   -12400.00
01994              -9.80   -12600.00
01995              -9.40   -12400.00
01996              -8.60   -12200.00
01997              -9.00   -12200.00
01998              -8.40   -12000.00
01999              -8.60   -12000.00
02000              -8.40   -11800.00
02001              -8.00   -11600.00
02002              -7.60   -11600.00
02003              -7.00   -11400.00
02004              -7.60   -11400.00
02005              -7.80   -11000.00
02006              -6.00   -11000.00
02007              -6.60   -11000.00
02008              -7.60   -10800.00
02009              -5.80   -10800.00
02010              -6.00   -10400.00
02011              -6.20   -10600.00
02012              -5.60   -10200.00
02013              -6.00   -10000.00
02014              -6.00   -10000.00
02015              -4.80    -9800.00
02016              -5.20    -9600.00
02017              -5.40    -9600.00
02018              -4.40    -9200.00
02019              -5.00    -9200.00
02020              -4.40    -9000.00
02021              -4.00    -9000.00
02022              -4.40    -8600.00
02023              -4.60    -8400.00
02024              -3.80    -8400.00
02025              -4.20    -8200.00
02026              -4.60    -8000.00
02027              -3.80    -8000.00
02028              -3.20    -7600.00
02029              -3.60    -7600.00
02030              -3.40    -7400.00
02031              -2.80    -7200.00
02032              -3.40    -6800.00
02033              -3.40    -6800.00
02034              -2.60    -6600.00
02035              -2.60    -6400.00
02036              -3.00    -6200.00
02037              -2.80    -6000.00
02038              -2.20    -6000.00
02039              -2.80    -5800.00
02040              -3.00    -5400.00
02041              -2.00    -5400.00
02042              -1.80    -5000.00
02043              -2.60    -5000.00
02044              -2.00    -4800.00
02045              -1.40    -4600.00
02046              -2.20    -4400.00
02047              -2.00    -4200.00
02048              -1.40    -4000.00
02049              -1.80    -3800.00
02050              -1.60    -3600.00
02051              -1.20    -3200.00
02052              -1.60    -3200.00
02053              -1.40    -3000.00
02054              -1.00    -2800.00
02055              -1.80    -2800.00
02056              -1.20    -2400.00
02057              -1.00    -2200.00
02058              -1.40    -2000.00
02059              -1.20    -1800.00
02060              -0.80    -1600.00
02061              -0.80    -1600.00
02062              -0.60    -1200.00
02063              -1.00    -1000.00
02064              -1.00     -800.00
02065              -0.60     -400.00
02066              -0.20     -200.00
02067              -0.60     -200.00
02068              -0.60        0.00
02069               0.20      200.00
02070               1.40      400.00
02071               1.20      600.00
02072              -1.20      800.00
02073              -0.20      800.00
02074               1.20     1200.00
02075               0.20     1400.00
02076              -0.20     1600.00
02077               3.60     1800.00
02078              16.20     2000.00
02079               9.20     2400.00
02080             -25.00     2600.00
02081             -13.40     2600.00
02082               9.20     2800.00
02083               3.60     3000.00
02084              25.00     3400.00
02085             -25.00     3200.00
02086             -25.00     3800.00
02087              25.00     3800.00
02088             -25.00     4000.00
02089             -25.00     4400.00
02090              25.00     4400.00
02091              -4.40     4600.00
02092             -25.00     5200.00
02093              25.00     5000.00
02094              -0.60     5200.00
02095             -11.60     5400.00
02096               2.00     5600.00
02097               6.80     5800.00
02098              14.00     6000.00
02099             -24.60     6400.00
02100               3.60     6400.00
02101              25.00     6400.00
02102              -8.60     6800.00
02103             -21.80     7000.00
02104              17.20     7200.00
02105              25.00     7400.00
02106             -25.00     7600.00
02107              -3.40     7800.00
02108              25.00     7800.00
02109             -11.60     8200.00
02110             -13.40     8200.00
02111              25.00     8400.00
02112               4.20     8600.00
02113             -19.40     8600.00
02114              17.20     8800.00
02115              16.20     9200.00
02116             -14.00     9400.00
02117               6.80     9400.00
02118              17.00     9400.00
02119              -3.60     9600.00
02120              -2.00     9800.00
02121              11.80    10000.00
02122               7.00    10000.00
02123              -0.80    10400.00
02124               5.40    10400.00
02125              10.60    10400.00
02126               3.00    10800.00
02127               1.40    10800.00
02128              10.80    10800.00
02129               6.20    11000.00
02130               0.80    11200.00
02131               9.80    11200.00
02132               9.80    11400.00
02133               1.60    11600.00
02134               7.40    11600.00
02135              11.60    11800.00
02136               3.80    11800.00
02137               5.80    12000.00
02138              12.40    12000.00
02139               7.40    12400.00
02140               5.80    12400.00
02141              11.00    12400.00
02142               9.80    12600.00
02143               7.40    12600.00
02144              10.00    12800.00
02145              11.60    13000.00
02146               9.40    12800.00
02147               9.80    13200.00
02148              12.60    13200.00
02149              11.80    13000.00
02150              10.00    13200.00
02151              12.60    13200.00
02152              14.60    13200.00
02153              12.60    13400.00
02154              12.40    13400.00
02155              15.60    13400.00
02156              14.60    13600.00
02157              14.00    13600.00
02158              17.00    13600.00
02159              17.00    13600.00
02160              15.40    13600.00
02161              18.00    13600.00
02162              19.60    14000.00
02163              17.40    13800.00
02164              18.60    14000.00
02165              21.20    14000.00
02166              20.60    14000.00
02167              20.60    14000.00
02168              22.40    14200.00
02169              23.40    14000.00
02170              22.80    14000.00
02171              23.40    14000.00
02172              23.80    14200.00
02173              25.00    14200.00
02174              24.60    14200.00
02175              24.60    14000.00
02176              25.00    14200.00
02177              24.40    14200.00
02178              23.60    14200.00
02179              25.00    14200.00
02180              22.60    14200.00
02181              20.60    14000.00
02182              22.60    14000.00
02183              20.80    14000.00
02184              18.20    14000.00
02185              19.40    14000.00
02186              18.40    14000.00
02187              15.60    14000.00
02188              17.00    13800.00
02189              17.00    13600.00
02190              15.20    13600.00
02191              15.00    13600.00
02192              14.80    13600.00
02193              13.60    13400.00
02194              13.20    13600.00
02195              13.00    13400.00
02196              12.80    13400.00
02197              11.60    13200.00
02198              11.60    13200.00
02199              12.20    13200.00
02200              11.00    13200.00
02201              10.00    13200.00
02202              11.40    12800.00
02203              10.60    12800.00
02204               9.00    12600.00
02205               9.80    12600.00
02206               9.80    12600.00
02207               8.40    12400.00
02208               8.60    12600.00
02209               8.60    12400.00
02210               7.60    12200.00
02211               7.60    12200.00
02212               7.80    12000.00
02213               7.40    12000.00
02214               7.00    11800.00
02215               7.80    11600.00
02216               7.00    11600.00
02217               6.60    11200.00
02218               6.80    11200.00
02219               6.00    11000.00
02220               6.00    11000.00
02221               6.20    11000.00
02222               5.20    10800.00
02223               5.40    10600.00
02224               5.40    10400.00
02225               5.40    10200.00
02226               5.80    10200.00
02227               5.20    10000.00
02228               4.20    10000.00
02229               4.40     9600.00
02230               4.40     9600.00
02231               4.20     9400.00
02232               5.00     9200.00
02233               3.60     9200.00
02234               3.60     9000.00
02235               4.60     8800.00
02236               3.40     8600.00
02237               3.00     8400.00
02238               4.20     8400.00
02239               3.60     8000.00
02240               2.80     8000.00
02241               3.60     7800.00
02242               3.00     7600.00
02243               1.80     7600.00
02244               3.20     7400.00
02245               3.60     7200.00
02246               2.40     7000.00
02247               2.80     6800.00
02248               2.40     6600.00
02249               1.80     6400.00
02250               2.60     6200.00
02251               2.00     6000.00
02252               1.80     5600.00
02253               2.20     5600.00
02254               2.00     5400.00
02255               1.00     5200.00
02256               1.60     5200.00
02257               2.00     4800.00
02258               0.60     4600.00
02259               1.20     4400.00
02260               2.00     4400.00
02261               1.00     4000.00
02262               1.00     3800.00
02263               1.20     3600.00
02264               1.00     3600.00
02265               0.40     3200.00
02266               0.80     3000.00
02267               1.00     2800.00
02268               0.40     2800.00
02269               0.20     2400.00
02270               0.60     2200.00
02271               0.40     2000.00
02272               0.20     2000.00
02273               0.40     1800.00
02274               0.40     1400.00
02275               0.20     1400.00
02276               0.20     1200.00
02277               0.20      800.00
02278              -0.20      600.00
02279              -0.40      400.00
02280              -0.20      200.00
02281               0.00        0.00
02282              -0.40        0.00
02283              -0.40     -400.00
02284               1.40     -400.00
02285               0.40     -600.00
02286              -2.20    -1000.00
02287              -0.60    -1000.00
02288               0.60    -1200.00
02289              -1.20    -1600.00
02290               0.40    -1800.00
02291              20.40    -1800.00
02292               9.80    -2400.00
02293             -25.00    -2600.00
02294             -13.80    -2800.00
02295               5.60    -2600.00
02296              25.00    -2800.00
02297              25.00    -3400.00
02298             -25.00    -3200.00
02299              25.00    -3200.00
02300              25.00    -4000.00
02301             -25.00    -3600.00
02302             -25.00    -4000.00
02303              25.00    -4600.00
02304             -25.00    -4200.00
02305             -25.00    -4800.00
02306              25.00    -4800.00
02307             -25.00    -5000.00
02308               8.60    -5600.00
02309             -23.40    -5600.00
02310              17.00    -5800.00
02311              25.00    -6000.00
02312             -25.00    -5800.00
02313              25.00    -6400.00
02314              25.00    -6400.00
02315             -25.00    -6800.00
02316              -8.60    -7200.00
02317              25.00    -7000.00
02318               7.80    -7400.00
02319             -25.00    -7400.00
02320              22.60    -7600.00
02321              25.00    -8000.00
02322             -25.00    -7800.00
02323               5.80    -8400.00
02324              22.20    -8200.00
02325             -17.80    -8600.00
02326             -23.60    -8800.00
02327              17.60    -8800.00
02328               3.80    -9000.00
02329             -25.00    -9200.00
02330              11.60    -9400.00
02331               2.60    -9400.00
02332             -18.20    -9600.00
02333              -6.00    -9600.00
02334               3.80    -9800.00
02335              -6.00   -10000.00
02336             -14.60   -10000.00
02337               2.00   -10400.00
02338              -2.00   -10400.00
02339             -13.40   -10600.00
02340              -7.60   -10600.00
02341               2.80   -11000.00
02342             -12.60   -11200.00
02343              -9.40   -11000.00
02344               2.20   -11200.00
02345             -10.20   -11400.00
02346             -11.80   -11400.00
02347              -3.00   -11600.00
02348              -5.00   -11800.00
02349             -15.60   -12000.00
02350              -5.40   -12000.00
02351              -2.60   -12200.00
02352             -13.80   -12200.00
02353             -10.00   -12400.00
02354              -4.40   -12400.00
02355             -11.20   -12400.00
02356             -13.00   -12800.00
02357              -6.00   -12800.00
02358              -9.20   -12800.00
02359             -13.80   -13000.00
02360             -10.60   -13000.00
02361              -7.60   -13200.00
02362             -14.20   -13000.00
02363             -14.20   -13200.00
02364              -9.20   -13200.00
02365             -12.60   -13400.00
02366             -15.00   -13400.00
02367             -13.40   -13400.00
02368             -12.40   -13600.00
02369             -15.80   -13600.00
02370             -16.00   -13600.00
02371             -14.00   -13800.00
02372             -16.60   -13600.00
02373             -17.80   -13800.00
02374             -16.60   -14000.00
02375             -17.20   -13800.00
02376             -19.20   -13800.00
02377             -19.60   -13800.00
02378             -19.00   -14000.00
02379             -20.40   -14000.00
02380             -22.00   -13800.00
02381             -22.00   -14200.00
02382             -22.20   -14000.00
02383             -23.00   -14200.00
02384             -23.80   -14000.00
02385             -23.60   -14000.00
02386             -24.40   -14000.00
02387             -25.00   -14000.00
02388             -25.00   -14200.00
02389             -25.00   -14200.00
02390             -25.00   -14000.00
02391             -25.00   -14000.00
02392             -24.40   -14000.00
02393             -24.20   -14000.00
02394             -23.80   -14000.00
02395             -22.60   -14000.00
02396             -21.40   -14000.00
02397             -20.40   -14000.00
02398             -19.60   -13800.00
02399             -19.60   -14000.00
02400             -18.60   -13800.00
02401             -17.20   -14000.00
02402             -17.20   -13800.00
02403             -16.60   -13800.00
02404             -15.80   -13800.00
02405             -15.60   -13600.00
02406             -15.00   -13600.00
02407             -13.80   -13600.00
02408             -14.20   -13600.00
02409             -13.80   -13400.00
02410             -13.00   -13400.00
02411             -12.40   -13200.00
02412             -12.60   -13400.00
02413             -12.40   -13200.00
02414             -11.60   -13000.00
02415             -10.80   -13000.00
02416             -11.60   -13000.00
02417             -10.80   -12800.00
02418              -9.60   -12800.00
02419             -10.20   -12800.00
02420             -10.00   -12400.00
02421              -9.20   -12600.00
02422              -9.80   -12400.00
02423              -9.20   -12200.00
02424              -8.20   -12200.00
02425              -9.00   -12200.00
02426              -9.80   -12000.00
02427              -7.60   -12000.00
02428              -6.80   -11600.00
02429              -7.60   -11600.00
02430              -7.40   -11400.00
02431              -7.40   -11400.00
02432              -7.60   -11200.00
02433              -6.80   -11000.00
02434              -6.00   -11000.00
02435              -6.80   -10800.00
02436              -5.80   -10800.00
02437              -6.00   -10600.00
02438              -6.20   -10400.00
02439              -5.40   -10400.00
02440              -5.80   -10000.00
02441              -6.20   -10000.00
02442              -3.80    -9800.00
02443              -4.40    -9600.00
02444              -6.80    -9600.00
02445              -5.20    -9400.00
02446              -3.60    -9400.00
02447              -5.60    -9200.00
02448              -5.40    -9000.00
02449              -2.60    -8800.00
02450              -4.40    -8600.00
02451              -5.00    -8400.00
02452              -3.40    -8400.00
02453              -4.20    -8000.00
02454              -4.80    -8000.00
02455              -3.40    -7600.00
02456              -2.80    -7600.00
02457              -4.00    -7400.00
02458              -3.20    -7200.00
02459              -3.40    -7000.00
02460              -3.80    -6800.00
02461              -3.00    -6600.00
02462              -2.80    -6600.00
02463              -3.20    -6400.00
02464              -3.20    -6000.00
02465              -2.20    -6000.00
02466              -2.60    -5800.00
02467              -3.40    -5800.00
02468              -2.80    -5200.00
02469              -2.00    -5200.00
02470              -3.00    -5000.00
02471              -2.20    -4800.00
02472              -1.40    -4600.00
02473              -2.60    -4400.00
02474              -2.20    -4200.00
02475              -1.20    -4000.00
02476              -2.00    -4000.00
02477              -2.60    -3600.00
02478              -1.20    -3600.00
02479              -1.40    -3200.00
02480              -1.80    -3000.00
02481              -1.20    -2800.00
02482              -1.80    -2600.00
02483              -1.00    -2400.00
02484              -1.20    -2400.00
02485              -1.40    -2000.00
02486              -0.60    -1800.00
02487              -1.20    -1600.00
02488              -0.60    -1600.00
02489              -0.40    -1200.00
02490              -1.20     -800.00
02491              -0.60     -800.00
02492              -0.60     -600.00
02493              -0.60     -400.00
02494               0.20     -200.00
02495              -0.40        0.00
02496              -0.60      200.00
02497               1.20      400.00
02498               2.00      600.00
02499              -1.20      800.00
02500              -0.40      800.00
02501               1.40     1200.00
02502               0.20     1400.00
02503               0.20     1600.00
02504               3.00     1800.00
02505              12.40     2200.00
02506              16.20     2400.00
02507             -25.00     2600.00
02508             -23.00     2800.00
02509               8.60     2600.00
02510               2.80     3000.00
02511              25.00     3400.00
02512             -22.60     3200.00
02513             -25.00     3600.00
02514              25.00     3800.00
02515              16.40     3800.00
02516             -25.00     4200.00
02517              25.00     4400.00
02518              25.00     4400.00
02519             -25.00     4800.00
02520              25.00     5000.00
02521              13.40     5200.00
02522             -19.00     5600.00
02523               2.00     5600.00
02524               4.20     5800.00
02525              17.20     6000.00
02526             -20.00     6200.00
02527              -6.20     6400.00
02528              25.00     6600.00
02529              -1.00     6800.00
02530             -25.00     7000.00
02531              10.20     7200.00
02532              25.00     7200.00
02533             -21.40     7400.00
02534             -16.20     7800.00
02535              25.00     7800.00
02536              -1.60     8200.00
02537             -22.20     8200.00
02538              23.80     8400.00
02539              12.80     8600.00
02540             -22.20     8800.00
02541               9.40     8800.00
02542              23.60     8800.00
02543             -12.20     9200.00
02544              -0.40     9200.00
02545              20.20     9400.00
02546              -0.60     9600.00
02547              -6.20     9800.00
02548              10.60    10000.00
02549              10.60    10000.00
02550              -1.40    10200.00
02551               4.00    10400.00
02552              12.20    10400.00
02553               3.60    10600.00
02554               0.40    10800.00
02555              10.20    10800.00
02556               7.80    11000.00
02557               0.40    11200.00
02558               9.60    11200.00
02559              10.60    11400.00
02560               2.00    11600.00
02561               6.40    11800.00
02562              12.20    11800.00
02563               5.20    12000.00
02564               5.00    12000.00
02565              12.40    12200.00
02566               8.60    12400.00
02567               5.00    12400.00
02568              10.60    12400.00
02569              10.80    12600.00
02570               7.00    12600.00
02571              10.00    12800.00
02572              11.80    12800.00
02573              10.00    12800.00
02574               9.80    13000.00
02575              11.20    13200.00
02576              13.20    13000.00
02577              10.20    13200.00
02578              11.00    13200.00
02579              14.60    13400.00
02580              13.20    13400.00
02581              12.00    13600.00
02582              14.20    13600.00
02583              15.00    13600.00
02584              14.20    13600.00
02585              14.80    13600.00
02586              17.40    13800.00
02587              16.60    13600.00
02588              16.40    13800.00
02589              18.60    13600.00
02590              18.80    13800.00
02591              18.00    14000.00
02592              19.40    14000.00
02593              21.80    14000.00
02594              21.40    14000.00
02595              20.60    14000.00
02596              22.60    14000.00
02597              23.80    14200.00
02598              22.60    14000.00
02599              23.00    14200.00
02600              25.00    14200.00
02601              24.20    14200.00
02602              25.00    14200.00
02603              25.00    14200.00
02604              24.60    14200.00
02605              25.00    14000.00
02606              23.00    14000.00
02607              23.40    14200.00
02608              23.00    14200.00
02609              20.40    14000.00
02610              20.60    14000.00
02611              20.40    14000.00
02612              18.60    13800.00
02613              17.00    13800.00
02614              18.20    14000.00
02615              17.20    13800.00
02616              16.20    13800.00
02617              17.20    13600.00
02618              14.60    13600.00
02619              14.00    13600.00
02620              14.20    13600.00
02621              13.20    13600.00
02622              13.80    13400.00
02623              12.60    13400.00
02624              12.20    13200.00
02625              13.20    13200.00
02626              11.60    13200.00
02627              10.60    13200.00
02628              11.80    13200.00
02629              10.60    13000.00
02630              10.00    12800.00
02631              10.60    12800.00
02632              10.00    12600.00
02633               9.00    12600.00
02634               9.00    12600.00
02635               9.40    12400.00
02636               8.20    12400.00
02637               8.60    12200.00
02638               8.40    12000.00
02639               7.40    12000.00
02640               7.80    12000.00
02641               7.40    11600.00
02642               6.80    11600.00
02643               6.80    11600.00
02644               6.80    11400.00
02645               6.60    11200.00
02646               5.80    11000.00
02647               6.80    11200.00
02648               6.60    10800.00
02649               5.00    10800.00
02650               5.80    10600.00
02651               6.00    10400.00
02652               4.40    10200.00
02653               5.00    10200.00
02654               5.40    10000.00
02655               4.20    10000.00
02656               4.20     9600.00
02657               5.00     9600.00
02658               4.00     9400.00
02659               3.40     9400.00
02660               4.20     9200.00
02661               4.20     9000.00
02662               3.60     8800.00
02663               3.60     8800.00
02664               3.60     8600.00
02665               3.00     8400.00
02666               3.60     8200.00
02667               3.40     8200.00
02668               2.80     8000.00
02669               3.40     7600.00
02670               3.00     7400.00
02671               2.60     7200.00
02672               2.60     7000.00
02673               2.00     6800.00
02674               2.20     6800.00
02675               2.80     6600.00
02676               1.80     6400.00
02677               2.20     6400.00
02678               2.60     6000.00
02679               2.00     5800.00
02680               1.80     5800.00
02681               1.80     5400.00
02682               2.00     5400.00
02683               1.80     5200.00
02684               1.40     5000.00
02685               1.80     4800.00
02686               1.40     4400.00
02687               1.20     4400.00
02688               1.00     4000.00
02689               1.40     4000.00
02690               1.20     3800.00
02691               1.00     3600.00
02692               1.00     3200.00
02693               1.00     3000.00
02694               0.80     2800.00
02695               1.00     2800.00
02696               0.40     2400.00
02697               0.60     2400.00
02698               1.00     2200.00
02699               0.40     2000.00
02700               0.20     1600.00
02701               0.40     1400.00
02702               0.40     1200.00
02703              -0.20     1200.00
02704               0.20      800.00
02705               0.20      600.00
02706              -0.40      600.00
02707              -0.20      200.00
02708              -0.40      200.00
02709               0.00     -200.00
02710              -0.60     -400.00
02711               1.20     -400.00
02712               1.60     -800.00
02713              -2.00     -800.00
02714              -1.40    -1000.00
02715               1.20    -1400.00
02716              -0.60    -1400.00
02717              -1.00    -1600.00
02718              13.40    -1800.00
02719              21.20    -2200.00
02720             -25.00    -2400.00
02721             -25.00    -2800.00
02722               7.40    -2800.00
02723              25.00    -2800.00
02724              25.00    -3400.00
02725             -25.00    -3400.00
02726              -1.20    -3200.00
02727              25.00    -4000.00
02728             -25.00    -3800.00
02729             -25.00    -4000.00
02730              25.00    -4400.00
02731             -19.40    -4400.00
02732             -25.00    -4600.00
02733              25.00    -4800.00
02734             -25.00    -5000.00
02735              -2.20    -5400.00
02736             -12.60    -5400.00
02737              -1.00    -5800.00
02738              25.00    -6000.00
02739             -25.00    -6000.00
02740               9.80    -6400.00
02741              25.00    -6400.00
02742             -25.00    -6600.00
02743             -17.20    -7000.00
02744              22.00    -6800.00
02745              18.60    -7200.00
02746             -25.00    -7400.00
02747               1.40    -7400.00
02748              25.00    -7600.00
02749             -25.00    -7800.00
02750              -9.20    -8200.00
02751              25.00    -8200.00
02752             -10.80    -8400.00
02753             -25.00    -8800.00
02754               9.40    -8800.00
02755              15.00    -9000.00
02756             -25.00    -9000.00
02757               3.00    -9200.00
02758               9.80    -9400.00
02759             -17.00    -9600.00
02760              -9.20    -9800.00
02761               2.60    -9800.00
02762              -1.80   -10000.00
02763             -15.60   -10000.00
02764              -0.60   -10400.00
02765               1.00   -10400.00
02766             -11.80   -10600.00
02767             -10.20   -10800.00
02768               2.60   -10800.00
02769              -9.00   -10800.00
02770             -13.00   -11200.00
02771               2.00   -11000.00
02772              -7.60   -11400.00
02773             -12.60   -11400.00
02774              -4.60   -11600.00
02775              -3.20   -11800.00
02776             -14.40   -11800.00
02777              -8.40   -12000.00
02778              -1.40   -12000.00
02779             -12.60   -12200.00
02780             -11.60   -12400.00
02781              -4.60   -12200.00
02782              -9.80   -12400.00
02783             -14.00   -12400.00
02784              -7.40   -12800.00
02785              -8.20   -12800.00
02786             -13.40   -12800.00
02787             -11.80   -13000.00
02788              -8.20   -13000.00
02789             -12.20   -13200.00
02790             -15.40   -13200.00
02791             -10.20   -13200.00
02792             -11.00   -13200.00
02793             -15.00   -13200.00
02794             -14.80   -13400.00
02795             -12.20   -13600.00
02796             -15.00   -13600.00
02797             -17.00   -13600.00
02798             -13.80   -13600.00
02799             -16.00   -13800.00
02800             -18.40   -13600.00
02801             -16.60   -13800.00
02802             -16.40   -13600.00
02803             -19.80   -14000.00
02804             -20.20   -13800.00
02805             -18.20   -14000.00
02806             -20.20   -14000.00
02807             -22.60   -14000.00
02808             -21.20   -14000.00
02809             -22.00   -14000.00
02810             -23.40   -14000.00
02811             -23.40   -14000.00
02812             -23.60   -14000.00
02813             -24.60   -14000.00
02814             -24.80   -14000.00
02815             -24.60   -14200.00
02816             -25.00   -14200.00
02817             -25.00   -14200.00
02818             -25.00   -14200.00
02819             -25.00   -14000.00
02820             -24.00   -14000.00
02821             -23.40   -14000.00
02822             -22.80   -14000.00
02823             -21.40   -14000.00
02824             -20.40   -13800.00
02825             -19.80   -14000.00
02826             -19.80   -14000.00
02827             -18.20   -14000.00
02828             -17.40   -13800.00
02829             -17.20   -13800.00
02830             -16.40   -13800.00
02831             -15.80   -13600.00
02832             -15.60   -13600.00
02833             -15.00   -13400.00
02834             -14.20   -13600.00
02835             -14.00   -13600.00
02836             -14.20   -13600.00
02837             -13.20   -13200.00
02838             -12.40   -13200.00
02839             -13.00   -13200.00
02840             -12.60   -13200.00
02841             -11.40   -13000.00
02842             -11.20   -13000.00
02843             -11.60   -13000.00
02844             -10.80   -12800.00
02845             -10.20   -12800.00
02846             -10.60   -12600.00
02847             -10.20   -12400.00
02848              -9.20   -12600.00
02849             -10.20   -12400.00
02850              -9.40   -12200.00
02851              -8.40   -12200.00
02852              -8.60   -12200.00
02853              -9.00   -12000.00
02854              -8.40   -12000.00
02855              -7.60   -12000.00
02856              -8.20   -11600.00
02857              -7.80   -11400.00
02858              -7.00   -11400.00
02859              -7.40   -11000.00
02860              -7.00   -11000.00
02861              -6.20   -10800.00
02862              -7.20   -10800.00
02863              -6.20   -10800.00
02864              -6.60   -10600.00
02865              -5.80   -10400.00
02866              -5.80   -10400.00
02867              -5.40   -10000.00
02868              -5.80   -10000.00
02869              -4.60    -9800.00
02870              -5.20    -9800.00
02871              -5.40    -9600.00
02872              -4.80    -9400.00
02873              -4.60    -9200.00
02874              -5.20    -9200.00
02875              -4.20    -9000.00
02876              -4.20    -8800.00
02877              -4.60    -8600.00
02878              -4.20    -8400.00
02879              -3.40    -8400.00
02880              -3.80    -8000.00
02881              -4.20    -8000.00
02882              -3.60    -7800.00
02883              -3.40    -7600.00
02884              -3.40    -7400.00
02885              -3.00    -7200.00
02886              -3.20    -7200.00
02887              -3.40    -6800.00
02888              -2.40    -6800.00
02889              -3.40    -6600.00
02890              -3.40    -6400.00
02891              -2.60    -6200.00
02892              -2.40    -6000.00
02893              -2.60    -5800.00
02894              -2.40    -5600.00
02895              -2.00    -5600.00
02896              -2.20    -5200.00
02897              -2.80    -5000.00
02898              -1.80    -4800.00
02899              -2.20    -4600.00
02900              -3.00    -4400.00
02901              -1.20    -4200.00
02902              -1.80    -4200.00
02903              -2.00    -4000.00
02904              -1.80    -3600.00
02905              -1.80    -3600.00
02906              -1.40    -3400.00
02907              -1.80    -3000.00
02908              -2.80    -2800.00
02909              -0.20    -2600.00
02910              -1.00    -2400.00
02911              -2.60    -2400.00
02912              -0.40    -2000.00
02913              -0.60    -1800.00
02914              -3.40    -1600.00
02915              -0.20    -1400.00
02916               0.40    -1400.00
02917              -2.00    -1000.00
02918              -1.20     -800.00
02919               0.20     -800.00
02920              -0.60     -400.00
02921              -1.40     -200.00
02922              -0.20        0.00
02923               0.40        0.00
02924               0.20      400.00
02925               1.80      600.00
02926               0.20      800.00
02927              -1.20      800.00
02928               0.40     1200.00
02929               1.80     1400.00
02930               0.40     1600.00
02931               2.00     1800.00
02932              10.00     2000.00
02933              19.40     2200.00
02934             -21.00     2400.00
02935             -25.00     2600.00
02936               7.80     2800.00
02937               3.40     2800.00
02938              25.00     3200.00
02939               0.20     3200.00
02940             -25.00     3600.00
02941              25.00     3800.00
02942              25.00     3800.00
02943             -25.00     4000.00
02944              25.00     4400.00
02945              25.00     4400.00
02946             -25.00     4800.00
02947              22.00     5200.00
02948              25.00     5200.00
02949             -20.00     5400.00
02950               2.20     5600.00
02951               1.40     5600.00
02952              17.00     6000.00
02953              -9.40     6200.00
02954             -14.80     6400.00
02955              25.00     6400.00
02956               9.00     6800.00
02957             -23.00     7000.00
02958              -0.40     7000.00
02959              25.00     7200.00
02960              -8.80     7400.00
02961             -24.40     7600.00
02962              25.00     7800.00
02963              11.00     8000.00
02964             -25.00     8400.00
02965              15.40     8200.00
02966              18.60     8400.00
02967             -18.60     8800.00
02968               2.60     8800.00
02969              25.00     8800.00
02970              -7.00     9200.00
02971              -5.60     9200.00
02972              19.40     9400.00
02973               3.40     9600.00
02974              -6.20     9600.00
02975               7.40    10000.00
02976              11.40    10000.00
02977               1.20    10200.00
02978               1.20    10200.00
02979              10.40    10400.00
02980               6.80    10600.00
02981              -1.20    10600.00
02982               7.60    10800.00
02983              10.60    11000.00
02984               0.20    11200.00
02985               6.60    11200.00
02986              12.40    11400.00
02987               3.00    11400.00
02988               3.40    11600.00
02989              12.40    11600.00
02990               6.60    11800.00
02991               2.80    12000.00
02992              11.60    12000.00
02993               9.80    12200.00
02994               4.60    12400.00
02995               9.20    12400.00
02996              11.40    12600.00
02997               7.80    12600.00
02998               8.40    12600.00
02999              11.60    12800.00
03000              11.00    12800.00
03001               9.00    12800.00
03002              10.60    13000.00
03003              13.20    13200.00
03004              10.60    13200.00
03005              10.80    13200.00
03006              15.00    13400.00
03007              14.00    13400.00
03008              11.60    13400.00
03009              14.60    13600.00
03010              15.60    13600.00
03011              13.60    13600.00
03012              15.40    13600.00
03013              17.40    14000.00
03014              16.00    13600.00
03015              17.20    13600.00
03016              19.00    14000.00
03017              18.60    13800.00
03018              18.60    14000.00
03019              19.80    13800.00
03020              20.80    14000.00
03021              21.00    14200.00
03022              21.20    14000.00
03023              22.40    14000.00
03024              23.20    14200.00
03025              23.60    14000.00
03026              23.60    14000.00
03027              24.20    14000.00
03028              24.40    14200.00
03029              25.00    14200.00
03030              25.00    14000.00
03031              25.00    14200.00
03032              24.20    14200.00
03033              24.20    14000.00
03034              23.60    14200.00
03035              21.80    14200.00
03036              21.00    14000.00
03037              21.20    14000.00
03038              19.60    14000.00
03039              18.80    14000.00
03040              18.60    14000.00
03041              17.20    13800.00
03042              16.40    13600.00
03043              17.00    13800.00
03044              15.60    13800.00
03045              14.00    13600.00
03046              14.00    13600.00
03047              14.80    13600.00
03048              13.20    13600.00
03049              13.40    13400.00
03050              13.00    13400.00
03051              12.60    13200.00
03052              12.20    13200.00
03053              11.40    13200.00
03054              11.60    13200.00
03055              11.60    13200.00
03056              10.20    12800.00
03057              10.20    12800.00
03058              10.40    12800.00
03059               9.40    12600.00
03060               8.80    12600.00
03061               9.00    12600.00
03062               9.80    12400.00
03063               9.20    12400.00
03064               7.80    12200.00
03065               7.60    12000.00
03066               9.00    12000.00
03067               8.20    12000.00
03068               5.80    12000.00
03069               7.00    11800.00
03070               9.00    11600.00
03071               6.80    11400.00
03072               5.00    11200.00
03073               7.40    11000.00
03074               7.00    11200.00
03075               5.20    10800.00
03076               5.80    10800.00
03077               6.60    10800.00
03078               5.80    10400.00
03079               5.00    10400.00
03080               5.40    10200.00
03081               5.20    10000.00
03082               4.40    10000.00
03083               4.40     9800.00
03084               5.40     9600.00
03085               4.40     9400.00
03086               3.80     9400.00
03087               4.40     9200.00
03088               4.40     9000.00
03089               3.40     8800.00
03090               3.80     8600.00
03091               4.00     8600.00
03092               3.00     8400.00
03093               3.80     8400.00
03094               3.40     8000.00
03095               3.40     8000.00
03096               3.20     7800.00
03097               2.80     7400.00
03098               2.60     7200.00
03099               3.20     7000.00
03100               2.60     7000.00
03101               2.20     6800.00
03102               2.20     6600.00
03103               2.00     6400.00
03104               2.00     6200.00
03105               2.00     6200.00
03106               2.20     5800.00
03107               2.00     5600.00
03108               1.40     5600.00
03109               1.80     5400.00
03110               1.60     5200.00
03111               1.40     4800.00
03112               1.40     4600.00
03113               1.20     4600.00
03114               1.20     4400.00
03115               1.40     4200.00
03116               1.00     4000.00
03117               1.00     3600.00
03118               0.60     3600.00
03119               1.00     3400.00
03120               0.80     3000.00
03121               1.00     3000.00
03122               1.00     2800.00
03123               0.20     2600.00
03124               0.20     2400.00
03125               1.20     2200.00
03126               0.20     2000.00
03127              -0.20     1800.00
03128               1.00     1600.00
03129               0.40     1400.00
03130              -0.40     1200.00
03131               1.00      800.00
03132               0.20      600.00
03133              -1.00      400.00
03134               0.40      400.00
03135               0.40        0.00
03136              -1.00     -200.00
03137              -0.60     -200.00
03138               1.80     -400.00
03139               1.00     -600.00
03140              -2.00     -800.00
03141              -0.80    -1000.00
03142               1.00    -1200.00
03143              -0.40    -1600.00
03144              -0.80    -1600.00
03145               8.60    -1800.00
03146              25.00    -2400.00
03147             -25.00    -2600.00
03148             -25.00    -2800.00
03149               6.20    -2800.00
03150              16.20    -2600.00
03151              25.00    -3400.00
03152             -25.00    -3200.00
03153             -25.00    -3200.00
03154              25.00    -4000.00
03155              -9.40    -3800.00
03156             -25.00    -4000.00
03157              25.00    -4400.00
03158              25.00    -4200.00
03159             -25.00    -4400.00
03160              25.00    -4800.00
03161             -11.80    -5000.00
03162             -16.60    -5600.00
03163              -1.20    -5600.00
03164             -17.00    -5600.00
03165              25.00    -6000.00
03166             -25.00    -5800.00
03167             -18.20    -6400.00
03168              25.00    -6400.00
03169             -25.00    -6400.00
03170             -25.00    -7000.00
03171              17.20    -7000.00
03172              25.00    -7200.00
03173             -25.00    -7400.00
03174             -18.60    -7400.00
03175              25.00    -7800.00
03176             -25.00    -7800.00
03177             -23.80    -8200.00
03178              25.00    -8400.00
03179              -4.60    -8400.00
03180             -25.00    -8800.00
03181               1.40    -8600.00
03182              21.40    -9000.00
03183             -25.00    -9000.00
03184              -5.40    -9200.00
03185              15.20    -9600.00
03186             -16.40    -9600.00
03187             -11.60    -9800.00
03188               1.80    -9800.00
03189               0.60    -9800.00
03190             -15.00   -10000.00
03191              -3.60   -10200.00
03192               2.60   -10400.00
03193             -10.80   -10600.00
03194             -11.80   -10800.00
03195               1.20   -10800.00
03196              -5.60   -10800.00
03197             -15.40   -11000.00
03198               1.20   -11200.00
03199              -5.00   -11200.00
03200             -13.40   -11400.00
03201              -5.40   -11600.00
03202              -2.00   -11800.00
03203             -12.80   -12000.00
03204             -10.80   -12000.00
03205              -0.60   -12200.00
03206             -10.20   -12200.00
03207             -12.60   -12200.00
03208              -5.40   -12400.00
03209              -7.60   -12400.00
03210             -14.00   -12600.00
03211              -9.00   -12600.00
03212              -6.60   -12800.00
03213             -12.60   -12800.00
03214             -13.20   -13000.00
03215              -7.80   -13000.00
03216             -10.60   -13000.00
03217             -15.80   -13200.00
03218             -10.80   -13200.00
03219             -10.20   -13400.00
03220             -14.60   -13400.00
03221             -14.80   -13400.00
03222             -12.40   -13600.00
03223             -14.00   -13600.00
03224             -17.00   -13600.00
03225             -14.20   -13600.00
03226             -15.20   -13800.00
03227             -18.40   -13800.00
03228             -17.20   -13800.00
03229             -16.60   -13800.00
03230             -19.00   -13800.00
03231             -20.20   -13800.00
03232             -18.80   -14000.00
03233             -19.60   -14000.00
03234             -21.80   -14000.00
03235             -21.80   -14000.00
03236             -22.00   -14000.00
03237             -22.60   -14200.00
03238             -23.80   -14000.00
03239             -24.20   -14200.00
03240             -24.20   -14200.00
03241             -25.00   -14200.00
03242             -25.00   -14200.00
03243             -25.00   -14000.00
03244             -25.00   -14000.00
03245             -25.00   -14200.00
03246             -25.00   -14000.00
03247             -23.80   -14200.00
03248             -23.80   -14000.00
03249             -23.00   -14000.00
03250             -21.40   -14000.00
03251             -21.20   -14000.00
03252             -19.60   -14000.00
03253             -19.80   -13800.00
03254             -19.00   -13800.00
03255             -17.40   -13800.00
03256             -17.20   -14000.00
03257             -17.00   -13800.00
03258             -15.80   -13600.00
03259             -15.60   -13600.00
03260             -15.60   -13600.00
03261             -14.20   -13600.00
03262             -14.20   -13600.00
03263             -14.00   -13400.00
03264             -13.20   -13400.00
03265             -12.20   -13200.00
03266             -12.40   -13200.00
03267             -12.40   -13200.00
03268             -11.80   -13000.00
03269             -11.00   -13000.00
03270             -10.80   -12800.00
03271             -11.40   -13000.00
03272             -10.20   -12800.00
03273             -10.20   -12800.00
03274             -10.20   -12800.00
03275              -9.20   -12400.00
03276              -9.40   -12400.00
03277              -9.40   -12400.00
03278              -8.60   -12200.00
03279              -8.40   -12000.00
03280              -8.60   -12200.00
03281              -8.60   -12000.00
03282              -7.40   -11600.00
03283              -7.60   -11600.00
03284              -7.60   -11600.00
03285              -7.00   -11400.00
03286              -7.40   -11400.00
03287              -6.80   -11000.00
03288              -6.00   -10800.00
03289              -7.60   -10800.00
03290              -6.20   -10800.00
03291              -6.20   -10600.00
03292              -6.20   -10600.00
03293              -6.00   -10200.00
03294              -5.40   -10000.00
03295              -6.00   -10000.00
03296              -5.20   -10000.00
03297              -5.00    -9800.00
03298              -5.00    -9600.00
03299              -5.80    -9400.00
03300              -5.40    -9200.00
03301              -4.20    -9200.00
03302              -4.20    -9000.00
03303              -4.60    -8800.00
03304              -5.00    -8600.00
03305              -3.40    -8400.00
03306              -4.20    -8400.00
03307              -4.60    -8200.00
03308              -3.80    -8000.00
03309              -3.20    -7800.00
03310              -4.60    -7600.00
03311              -2.60    -7400.00
03312              -3.00    -7400.00
03313              -4.40    -7200.00
03314              -3.00    -6800.00
03315              -2.20    -6800.00
03316              -3.40    -6600.00
03317              -3.60    -6400.00
03318              -3.20    -6200.00
03319              -2.60    -6000.00
03320              -2.00    -6000.00
03321              -2.60    -5600.00
03322              -3.60    -5600.00
03323              -2.00    -5400.00
03324              -1.80    -5000.00
03325              -3.00    -4800.00
03326              -2.20    -4600.00
03327              -1.00    -4400.00
03328              -2.60    -4400.00
03329              -2.80    -4000.00
03330              -1.00    -4000.00
03331              -1.40    -3600.00
03332              -2.20    -3600.00
03333              -1.20    -3400.00
03334              -0.60    -3200.00
03335              -1.80    -2800.00
03336              -2.20    -2600.00
03337              -1.00    -2400.00
03338              -1.00    -2400.00
03339              -0.60    -2000.00
03340              -0.60    -2000.00
03341              -1.20    -1800.00
03342              -0.60    -1600.00
03343              -0.40    -1200.00
03344              -1.20    -1000.00
03345              -0.60     -800.00
03346              -0.20     -800.00
03347              -0.60     -400.00
03348              -0.40     -200.00
03349               0.20        0.00
03350              -0.60      200.00
03351               0.20      400.00
03352               1.80      400.00
03353               0.40      600.00
03354              -1.00      800.00
03355               1.00     1200.00
03356               1.40     1200.00
03357              -0.40     1600.00
03358               1.20     1800.00
03359               7.80     2000.00
03360              20.20     2400.00
03361             -11.80     2400.00
03362             -25.00     2600.00
03363               4.20     2800.00
03364               5.20     2800.00
03365              22.60     3400.00
03366              19.40     3200.00
03367             -25.00     3400.00
03368              25.00     3800.00
03369              25.00     3800.00
03370             -25.00     4000.00
03371               9.00     4400.00
03372              25.00     4400.00
03373             -25.00     4600.00
03374               0.60     5200.00
03375              25.00     4800.00
03376             -18.60     5400.00
03377              -0.40     5600.00
03378               1.00     5600.00
03379              15.60     6000.00
03380              -0.80     6000.00
03381             -22.40     6200.00
03382              23.60     6400.00
03383              17.80     6800.00
03384             -20.60     6800.00
03385              -8.40     7000.00
03386              25.00     7200.00
03387               2.80     7400.00
03388             -25.00     7800.00
03389              23.40     7800.00
03390              22.20     8000.00
03391             -25.00     8200.00
03392               6.80     8400.00
03393              25.00     8400.00
03394             -13.40     8600.00
03395              -6.60     8800.00
03396              25.00     8800.00
03397              -0.80     9200.00
03398             -10.60     9200.00
03399              17.60     9400.00
03400               8.40     9600.00
03401              -7.00     9800.00
03402               5.20    10000.00
03403              13.00    10000.00
03404               2.00    10200.00
03405               0.40    10200.00
03406               9.80    10400.00
03407               8.20    10600.00
03408               0.40    10600.00
03409               5.20    10800.00
03410              11.60    11000.00
03411               2.00    11200.00
03412               4.20    11200.00
03413              12.20    11400.00
03414               5.40    11200.00
03415               2.60    11600.00
03416              10.60    11600.00
03417               9.20    11800.00
03418               3.00    12000.00
03419               9.80    12200.00
03420              11.40    12200.00
03421               5.80    12200.00
03422               7.40    12400.00
03423              12.00    12600.00
03424               8.20    12600.00
03425               7.40    12800.00
03426              11.80    12600.00
03427              10.80    12800.00
03428               8.60    12800.00
03429              11.00    13000.00
03430              13.00    13200.00
03431              10.60    13200.00
03432              10.40    13200.00
03433              13.80    13400.00
03434              14.00    13400.00
03435              11.80    13400.00
03436              13.60    13600.00
03437              16.00    13600.00
03438              14.00    13600.00
03439              14.80    13600.00
03440              17.00    13600.00
03441              15.60    13800.00
03442              16.20    14000.00
03443              19.40    14000.00
03444              18.60    13800.00
03445              17.20    13800.00
03446              19.80    14000.00
03447              21.00    14000.00
03448              20.60    14000.00
03449              21.40    14200.00
03450              22.60    14200.00
03451              22.60    14000.00
03452              23.80    14000.00
03453              23.60    14000.00
03454              23.60    14000.00
03455              24.80    14200.00
03456              25.00    14000.00
03457              25.00    14000.00
03458              25.00    14000.00
03459              24.60    14000.00
03460              24.20    14200.00
03461              23.80    14000.00
03462              22.80    14000.00
03463              21.40    14200.00
03464              21.00    14000.00
03465              20.20    14000.00
03466              19.60    14000.00
03467              18.20    13800.00
03468              18.00    14000.00
03469              17.80    13800.00
03470              15.80    14000.00
03471              15.80    13600.00
03472              15.60    13600.00
03473              13.40    13600.00
03474              15.40    13600.00
03475              14.20    13600.00
03476              13.00    13400.00
03477              13.20    13400.00
03478              12.80    13200.00
03479              12.00    13200.00
03480              12.00    13200.00
03481              11.60    13200.00
03482              10.80    13000.00
03483              10.80    12800.00
03484              11.00    12800.00
03485               9.80    12800.00
03486               9.80    12600.00
03487              10.00    12600.00
03488               8.40    12400.00
03489               9.20    12400.00
03490               9.00    12200.00
03491               7.60    12400.00
03492               8.00    12000.00
03493               8.20    12000.00
03494               7.40    11800.00
03495               7.40    11800.00
03496               7.60    11800.00
03497               6.80    11600.00
03498               7.00    11600.00
03499               6.20    11200.00
03500               6.00    11200.00
03501               6.00    11000.00
03502               6.20    10800.00
03503               5.60    10800.00
03504               5.80    10600.00
03505               5.20    10600.00
03506               5.00    10400.00
03507               5.80    10200.00
03508               3.80    10200.00
03509               3.80    10000.00
03510               5.20     9800.00
03511               3.60     9600.00
03512               5.20     9400.00
03513               5.20     9400.00
03514               4.20     9200.00
03515               4.20     9200.00
03516               3.60     8800.00
03517               3.60     8600.00
03518               2.00     8600.00
03519               1.80     8400.00
03520               4.20     8200.00
03521               2.60     8200.00
03522               3.60     7800.00
03523               5.40     7800.00
03524               2.60     7400.00
03525               3.40     7600.00
03526               2.60     7200.00
03527               0.60     7000.00
03528               2.00     6800.00
03529               2.00     6600.00
03530               2.00     6400.00
03531               3.60     6200.00
03532               3.40     6200.00
03533               2.60     6000.00
03534               2.60     5800.00
03535               1.20     5600.00
03536               0.60     5600.00
03537               0.60     5200.00
03538               1.40     4800.00
03539               2.00     4800.00
03540               1.80     4600.00
03541               2.60     4400.00
03542               2.20     4000.00
03543               1.00     4000.00
03544               1.00     3800.00
03545               1.00     3400.00
03546              -0.20     3400.00
03547               0.40     3200.00
03548               1.40     3000.00
03549               1.00     2800.00
03550               0.80     2600.00
03551               0.60     2400.00
03552               0.40     2200.00
03553               0.40     2000.00
03554               0.00     1600.00
03555              -0.60     1800.00
03556               0.20     1400.00
03557               0.40     1200.00
03558              -0.20      800.00
03559               0.00      800.00
03560               0.20      600.00
03561              -0.20      400.00
03562              -0.20        0.00
03563              -0.40     -200.00
03564              -1.00     -200.00
03565               0.40     -400.00
03566               0.80     -600.00
03567              -1.20     -800.00
03568              -1.20    -1000.00
03569               0.40    -1200.00
03570              -0.60    -1200.00
03571              -1.40    -1600.00
03572               4.60    -1600.00
03573              25.00    -2200.00
03574             -19.40    -2400.00
03575             -25.00    -2600.00
03576               2.60    -2800.00
03577               7.40    -2800.00
03578              25.00    -3000.00
03579             -25.00    -3400.00
03580             -25.00    -3000.00
03581              25.00    -3800.00
03582              25.00    -4000.00
03583             -25.00    -3800.00
03584              25.00    -4400.00
03585              25.00    -4400.00
03586             -25.00    -4400.00
03587              25.00    -5000.00
03588              17.00    -5000.00
03589             -25.00    -5200.00
03590               7.60    -5600.00
03591             -25.00    -5600.00
03592              25.00    -6000.00
03593             -25.00    -5800.00
03594             -25.00    -6200.00
03595              25.00    -6600.00
03596             -14.00    -6400.00
03597             -25.00    -6800.00
03598              10.60    -6800.00
03599              25.00    -7200.00
03600             -25.00    -7400.00
03601             -25.00    -7400.00
03602              25.00    -8000.00
03603             -13.20    -8000.00
03604             -25.00    -8200.00
03605              25.00    -8400.00
03606               3.80    -8200.00
03607             -25.00    -8800.00
03608              -7.20    -8600.00
03609              23.40    -8800.00
03610             -20.40    -9000.00
03611             -14.80    -9200.00
03612              17.80    -9400.00
03613             -12.40    -9400.00
03614             -14.60    -9800.00
03615               0.60    -9800.00
03616               2.80    -9800.00
03617             -13.80   -10000.00
03618              -6.80   -10400.00
03619               3.60   -10400.00
03620              -8.60   -10400.00
03621             -13.20   -10600.00
03622              -0.80   -10800.00
03623              -2.00   -10800.00
03624             -16.60   -10800.00
03625              -1.20   -11200.00
03626              -2.00   -11200.00
03627             -13.80   -11400.00
03628              -7.00   -11600.00
03629              -1.20   -11800.00
03630             -11.00   -11800.00
03631             -14.00   -12000.00
03632              -0.60   -12000.00
03633              -8.20   -12200.00
03634             -14.60   -12200.00
03635              -5.40   -12400.00
03636              -6.00   -12400.00
03637             -14.80   -12600.00
03638             -10.20   -12600.00
03639              -5.80   -12800.00
03640             -12.20   -12800.00
03641             -13.80   -13000.00
03642              -8.60   -13200.00
03643              -9.20   -13200.00
03644             -16.60   -13000.00
03645             -12.20   -13200.00
03646              -9.20   -13200.00
03647             -14.80   -13400.00
03648             -15.60   -13400.00
03649             -11.60   -13400.00
03650             -13.00   -13600.00
03651             -18.20   -13600.00
03652             -14.60   -13600.00
03653             -13.80   -13600.00
03654             -18.60   -13800.00
03655             -17.80   -13800.00
03656             -15.60   -13800.00
03657             -18.40   -13800.00
03658             -20.60   -14000.00
03659             -18.80   -13800.00
03660             -18.60   -14000.00
03661             -21.80   -14000.00
03662             -21.80   -14000.00
03663             -21.40   -14000.00
03664             -22.80   -14000.00
03665             -23.60   -14000.00
03666             -23.60   -14000.00
03667             -23.60   -14000.00
03668             -25.00   -14000.00
03669             -25.00   -14000.00
03670             -24.60   -14000.00
03671             -25.00   -14000.00
03672             -25.00   -14200.00
03673             -25.00   -14000.00
03674             -24.20   -14200.00
03675             -23.60   -14000.00
03676             -23.00   -14000.00
03677             -22.00   -14000.00
03678             -20.60   -13800.00
03679             -19.80   -14000.00
03680             -19.80   -13800.00
03681             -19.00   -13800.00
03682             -17.80   -13800.00
03683             -17.40   -13800.00
03684             -17.20   -13800.00
03685             -15.80   -13800.00
03686             -16.00   -13600.00
03687             -15.60   -13600.00
03688             -14.80   -13600.00
03689             -14.40   -13600.00
03690             -14.00   -13400.00
03691             -13.80   -13200.00
03692             -12.40   -13200.00
03693             -12.60   -13200.00
03694             -12.60   -13200.00
03695             -12.60   -13200.00
03696             -10.80   -13000.00
03697             -10.80   -13000.00
03698             -12.20   -12800.00
03699             -10.20   -12800.00
03700              -9.80   -12800.00
03701             -11.00   -12600.00
03702              -9.80   -12600.00
03703              -8.60   -12600.00
03704             -10.20   -12400.00
03705              -9.20   -12400.00
03706              -7.60   -12200.00
03707              -8.60   -12000.00
03708              -9.40   -12000.00
03709              -7.20   -11800.00
03710              -7.60   -11600.00
03711              -8.40   -11600.00
03712              -6.20   -11400.00
03713              -6.80   -11200.00
03714              -8.40   -11000.00
03715              -6.00   -11000.00
03716              -6.80   -10800.00
03717              -7.00   -10800.00
03718              -6.60   -10600.00
03719              -5.40   -10600.00
03720              -6.00   -10400.00
03721              -5.60   -10200.00
03722              -5.40   -10000.00
03723              -5.20   -10000.00
03724              -5.40    -9600.00
03725              -4.60    -9600.00
03726              -5.20    -9400.00
03727              -5.20    -9200.00
03728              -4.40    -9000.00
03729              -4.60    -9200.00
03730              -4.40    -8800.00
03731              -3.80    -8600.00
03732              -4.40    -8400.00
03733              -4.20    -8400.00
03734              -3.60    -8200.00
03735              -3.80    -8000.00
03736              -3.80    -7800.00
03737              -3.60    -7600.00
03738              -3.40    -7400.00
03739              -3.20    -7400.00
03740              -3.00    -7200.00
03741              -3.00    -6800.00
03742              -2.80    -6800.00
03743              -2.80    -6600.00
03744              -2.80    -6400.00
03745              -2.80    -6400.00
03746              -2.80    -6200.00
03747              -2.60    -6000.00
03748              -2.60    -5800.00
03749              -2.80    -5600.00
03750              -2.20    -5200.00
03751              -2.40    -5200.00
03752              -2.00    -5000.00
03753              -2.20    -4600.00
03754              -2.60    -4400.00
03755              -1.80    -4400.00
03756              -2.00    -4200.00
03757              -2.20    -4000.00
03758              -1.40    -4000.00
03759              -1.40    -3600.00
03760              -2.20    -3400.00
03761              -1.40    -3200.00
03762              -1.20    -3000.00
03763              -2.00    -2800.00
03764              -1.20    -2600.00
03765              -0.60    -2400.00
03766              -1.60    -2200.00
03767              -1.40    -2000.00
03768              -0.80    -1800.00
03769              -1.20    -1600.00
03770              -1.00    -1200.00
03771              -0.80    -1200.00
03772              -1.00    -1000.00
03773              -1.00     -800.00
03774              -0.60     -600.00
03775              -0.40     -200.00
03776              -0.40        0.00
03777              -0.40        0.00
03778               0.40      400.00
03779               1.40      400.00
03780               0.60      600.00
03781              -1.20      800.00
03782               0.40     1000.00
03783               1.40     1200.00
03784               0.00     1400.00
03785               0.60     1600.00
03786               5.40     2000.00
03787              19.40     2400.00
03788              -1.80     2400.00
03789             -25.00     2600.00
03790              -2.20     2800.00
03791               7.60     2800.00
03792              11.80     3200.00
03793              25.00     3200.00
03794             -25.00     3200.00
03795              13.20     3800.00
03796              25.00     4000.00
03797             -25.00     4000.00
03798             -25.00     4400.00
03799              25.00     4400.00
03800             -25.00     4600.00
03801             -21.40     5200.00
03802              25.00     5200.00
03803             -13.00     5400.00
03804              -4.40     5600.00
03805               1.00     5600.00
03806              11.80     5800.00
03807               8.20     6000.00
03808             -25.00     6400.00
03809              15.40     6400.00
03810              25.00     6800.00
03811             -16.60     6800.00
03812             -15.60     7000.00
03813              25.00     7200.00
03814              14.60     7600.00
03815             -25.00     7600.00
03816              11.80     7800.00
03817              25.00     8000.00
03818             -21.60     8000.00
03819              -3.00     8200.00
03820              25.00     8400.00
03821              -6.60     8600.00
03822             -14.00     8600.00
03823              23.40     8800.00
03824               7.00     9200.00
03825             -14.00     9200.00
03826              13.80     9400.00
03827              12.60     9400.00
03828              -6.80     9600.00
03829               1.80     9800.00
03830              13.00    10000.00
03831               4.20    10000.00
03832              -0.60    10200.00
03833               8.00    10400.00
03834               9.40    10400.00
03835               1.00    10800.00
03836               3.40    10800.00
03837              12.00    11000.00
03838               3.80    11000.00
03839               2.20    11200.00
03840              11.80    11400.00
03841               7.40    11600.00
03842               1.40    11600.00
03843               9.80    11800.00
03844              10.20    11800.00
03845               2.60    12000.00
03846               8.00    12000.00
03847              12.40    12200.00
03848               5.80    12400.00
03849               6.60    12400.00
03850              12.20    12400.00
03851               9.00    12600.00
03852               7.40    12800.00
03853              11.60    12800.00
03854              11.40    12800.00
03855               8.80    12800.00
03856              10.80    13200.00
03857              13.40    13000.00
03858              10.80    13200.00
03859              10.20    13200.00
03860              13.80    13200.00
03861              14.00    13400.00
03862              12.20    13400.00
03863              13.40    13400.00
03864              15.60    13600.00
03865              14.20    13600.00
03866              14.60    13600.00
03867              17.00    13800.00
03868              16.40    13600.00
03869              15.80    13600.00
03870              18.60    13800.00
03871              19.00    14000.00
03872              18.00    14000.00
03873              19.20    14000.00
03874              21.20    14000.00
03875              21.00    14200.00
03876              20.60    14000.00
03877              22.20    14000.00
03878              23.00    14000.00
03879              22.80    14200.00
03880              23.40    14000.00
03881              24.20    14000.00
03882              23.60    14200.00
03883              25.00    14000.00
03884              25.00    14200.00
03885              24.00    14000.00
03886              25.00    14200.00
03887              24.60    14200.00
03888              22.20    14000.00
03889              23.20    14000.00
03890              22.60    14000.00
03891              19.60    14200.00
03892              20.20    14000.00
03893              20.60    14000.00
03894              17.80    14000.00
03895              17.00    13800.00
03896              18.20    13600.00
03897              17.00    13800.00
03898              15.00    13800.00
03899              15.40    13600.00
03900              14.60    13600.00
03901              14.60    13400.00
03902              13.40    13600.00
03903              14.00    13400.00
03904              13.20    13400.00
03905              11.80    13200.00
03906              12.40    13200.00
03907              12.20    13200.00
03908              11.00    13200.00
03909              11.00    13200.00
03910              10.80    13000.00
03911              10.80    12800.00
03912              10.20    12800.00
03913               9.40    12600.00
03914               9.80    12600.00
03915               9.20    12600.00
03916               9.00    12400.00
03917               9.20    12400.00
03918               8.20    12600.00
03919               8.40    12000.00
03920               8.40    12000.00
03921               7.80    12000.00
03922               7.40    11800.00
03923               7.40    11800.00
03924               7.40    11600.00
03925               6.80    11600.00
03926               6.60    11200.00
03927               6.80    11000.00
03928               6.00    11000.00
03929               5.80    11000.00
03930               6.40    10800.00
03931               6.00    10800.00
03932               5.40    10600.00
03933               5.80    10400.00
03934               5.80    10200.00
03935               4.60    10200.00
03936               5.00    10000.00
03937               5.20     9800.00
03938               4.20     9600.00
03939               4.80     9600.00
03940               4.80     9200.00
03941               3.40     9200.00
03942               4.20     9000.00
03943               4.20     8800.00
03944               3.00     8600.00
03945               4.00     8600.00
03946               3.80     8400.00
03947               2.60     8400.00
03948               3.60     8200.00
03949               3.40     7800.00
03950               2.20     7800.00
03951               2.80     7600.00
03952               3.00     7400.00
03953               2.20     7200.00
03954               2.40     7000.00
03955               2.80     7000.00
03956               2.00     6800.00
03957               2.20     6400.00
03958               2.80     6400.00
03959               2.00     6200.00
03960               1.80     6000.00
03961               2.20     5800.00
03962               1.80     5600.00
03963               1.40     5400.00
03964               2.00     5200.00
03965               1.80     4800.00
03966               1.20     4800.00
03967               1.40     4600.00
03968               1.40     4400.00
03969               1.00     4200.00
03970               1.00     4000.00
03971               1.40     3800.00
03972               1.00     3800.00
03973               0.80     3600.00
03974               1.00     3200.00
03975               1.00     3000.00
03976               0.60     2800.00
03977               0.60     2600.00
03978               0.60     2400.00
03979               0.60     2200.00
03980               0.60     2000.00
03981               0.40     1800.00
03982               0.20     1600.00
03983               0.00     1400.00
03984               0.40     1200.00
03985               0.20      800.00
03986              -0.20      800.00
03987               0.20      400.00
03988               0.20      400.00
03989              -0.20      200.00
03990               0.20        0.00
03991              -0.40     -200.00
03992               0.40     -400.00
03993               2.00     -600.00
03994              -0.20     -800.00
03995              -1.80    -1200.00
03996               0.20    -1200.00
03997               0.20    -1400.00
03998              -1.20    -1600.00
03999               2.00    -1800.00
04000              25.00    -2200.00
04001              -6.00    -2600.00
04002             -25.00    -2600.00
04003              -3.40    -2800.00
04004               5.00    -2600.00
04005              25.00    -2800.00
04006               0.40    -3600.00
04007             -25.00    -3000.00
04008              25.00    -3600.00
04009              25.00    -4000.00
04010             -25.00    -3800.00
04011              25.00    -4400.00
04012              25.00    -4600.00
04013             -25.00    -4400.00
04014              25.00    -5000.00
04015              25.00    -5000.00
04016             -25.00    -5200.00
04017              12.40    -5600.00
04018             -25.00    -5600.00
04019              25.00    -6000.00
04020               0.40    -6000.00
04021             -25.00    -6000.00
04022              25.00    -6600.00
04023               8.20    -6400.00
04024             -25.00    -6800.00
04025               2.80    -6800.00
04026              25.00    -7200.00
04027             -11.40    -7600.00
04028             -25.00    -7400.00
04029              25.00    -7600.00
04030               7.80    -7800.00
04031             -25.00    -8000.00
04032              19.80    -8400.00
04033              12.60    -8200.00
04034             -23.80    -8600.00
04035             -15.60    -8800.00
04036              23.40    -9000.00
04037             -10.20    -9000.00
04038             -23.60    -9200.00
04039              17.00    -9400.00
04040              -6.00    -9600.00
04041             -16.60    -9600.00
04042              -2.80    -9800.00
04043               4.20   -10000.00
04044             -11.00   -10000.00
04045             -10.80   -10200.00
04046               3.80   -10400.00
04047              -5.40   -10600.00
04048             -13.40   -10600.00
04049              -3.80   -10800.00
04050               0.80   -11000.00
04051             -15.00   -11000.00
04052              -4.80   -11200.00
04053               0.20   -11200.00
04054             -12.40   -11400.00
04055              -9.20   -11600.00
04056              -1.80   -11600.00
04057              -8.00   -11800.00
04058             -14.60   -12000.00
04059              -2.80   -12000.00
04060              -5.20   -12200.00
04061             -14.20   -12200.00
04062              -7.60   -12400.00
04063              -5.40   -12400.00
04064             -12.60   -12600.00
04065             -11.60   -12600.00
04066              -6.20   -12800.00
04067             -10.20   -12800.00
04068             -13.40   -12800.00
04069              -9.80   -12800.00
04070              -8.20   -13200.00
04071             -15.00   -13000.00
04072             -13.80   -13200.00
04073              -9.20   -13400.00
04074             -13.40   -13400.00
04075             -15.60   -13400.00
04076             -13.00   -13600.00
04077             -13.00   -13600.00
04078             -17.00   -13600.00
04079             -15.60   -13600.00
04080             -14.00   -13800.00
04081             -17.80   -13600.00
04082             -18.00   -13800.00
04083             -16.20   -13800.00
04084             -17.80   -14000.00
04085             -20.40   -14000.00
04086             -19.60   -13800.00
04087             -19.00   -14000.00
04088             -21.00   -14000.00
04089             -22.40   -14000.00
04090             -21.40   -14000.00
04091             -22.20   -14000.00
04092             -23.60   -14200.00
04093             -23.80   -14200.00
04094             -23.80   -14200.00
04095             -24.60   -14200.00
04096             -25.00   -14400.00
04097             -24.80   -14000.00
04098             -25.00   -14000.00
04099             -25.00   -14200.00
04100             -25.00   -14200.00
04101             -24.40   -14000.00
04102             -23.60   -14200.00
04103             -24.00   -14000.00
04104             -21.80   -14000.00
04105             -20.40   -14200.00
04106             -21.20   -14000.00
04107             -19.40   -14000.00
04108             -19.40   -14000.00
04109             -18.20   -14000.00
04110             -17.60   -13800.00
04111             -17.20   -13800.00
04112             -15.40   -13600.00
04113             -16.00   -13800.00
04114             -15.40   -13800.00
04115             -14.00   -13600.00
04116             -14.20   -13600.00
04117             -14.60   -13400.00
04118             -13.80   -13200.00
04119             -12.20   -13400.00
04120             -13.00   -13200.00
04121             -12.80   -13200.00
04122             -11.20   -13200.00
04123             -11.40   -13200.00
04124             -11.60   -13000.00
04125             -10.80   -12800.00
04126             -10.20   -12800.00
04127             -10.60   -12800.00
04128             -10.20   -12400.00
04129              -9.40   -12400.00
04130              -9.20   -12400.00
04131              -9.80   -12200.00
04132              -9.00   -12200.00
04133              -8.20   -12200.00
04134              -8.40   -12000.00
04135              -8.60   -12000.00
04136              -7.80   -11800.00
04137              -7.20   -11600.00
04138              -8.20   -11600.00
04139              -7.00   -11400.00
04140              -6.80   -11400.00
04141              -8.00   -11000.00
04142              -6.20   -11000.00
04143              -6.00   -11000.00
04144              -7.60   -10800.00
04145              -6.20   -10600.00
04146              -5.40   -10600.00
04147              -6.00   -10400.00
04148              -6.00   -10200.00
04149              -5.80   -10000.00
04150              -5.40    -9800.00
04151              -5.20    -9800.00
04152              -5.20    -9600.00
04153              -5.40    -9400.00
04154              -4.60    -9400.00
04155              -5.00    -9200.00
04156              -4.60    -9000.00
04157              -4.20    -8800.00
04158              -4.40    -8600.00
04159              -4.40    -8600.00
04160              -3.60    -8200.00
04161              -3.80    -8200.00
04162              -4.40    -8000.00
04163              -4.00    -7800.00
04164              -3.80    -7600.00
04165              -3.60    -7400.00
04166              -3.80    -7400.00
04167              -3.00    -7200.00
04168              -3.40    -7000.00
04169              -3.20    -6800.00
04170              -2.60    -6600.00
04171              -3.00    -6400.00
04172              -3.00    -6400.00
04173              -2.60    -6200.00
04174              -2.60    -5800.00
04175              -2.80    -5600.00
04176              -2.80    -5600.00
04177              -2.00    -5200.00
04178              -2.20    -5200.00
04179              -2.20    -5000.00
04180              -1.80    -4800.00
04181              -2.00    -4400.00
04182              -2.20    -4200.00
04183              -1.60    -4200.00
04184              -1.40    -4000.00
04185              -2.00    -3800.00
04186              -1.40    -3600.00
04187              -1.40    -3400.00
04188              -1.20    -3200.00
04189              -1.40    -3000.00
04190              -1.40    -2800.00
04191              -1.40    -2600.00
04192              -1.20    -2400.00
04193              -1.00    -2400.00
04194              -1.00    -2000.00
04195              -1.00    -1800.00
04196              -1.20    -1600.00
04197              -0.60    -1600.00
04198              -0.60    -1200.00
04199              -1.00    -1000.00
04200              -1.00     -800.00
04201              -0.60     -600.00
04202              -0.40     -400.00
04203              -0.60     -200.00
04204              -0.20        0.00
04205               0.20      400.00
04206               1.00      600.00
04207               1.20      600.00
04208              -1.00      800.00
04209              -0.20      800.00
04210               1.20     1200.00
04211               0.40     1400.00
04212              -0.20     1600.00
04213               3.60     1800.00
04214              17.00     2200.00
04215               7.60     2400.00
04216             -25.00     2400.00
04217             -11.60     2800.00
04218               8.80     2600.00
04219               4.60     3000.00
04220              25.00     3200.00
04221             -25.00     3200.00
04222             -23.00     3800.00
04223              25.00     3600.00
04224             -25.00     3800.00
04225             -25.00     4400.00
04226              25.00     4400.00
04227             -12.40     4400.00
04228             -25.00     4800.00
04229              25.00     5000.00
04230              -3.60     5400.00
04231             -10.60     5400.00
04232               2.00     5600.00
04233               7.60     6000.00
04234              13.20     6000.00
04235             -25.00     6200.00
04236               5.80     6400.00
04237              25.00     6600.00
04238             -10.60     6800.00
04239             -20.80     6800.00
04240              19.40     7000.00
04241              23.80     7200.00
04242             -25.00     7600.00
04243              -0.40     7800.00
04244              25.00     7800.00
04245             -14.20     8200.00
04246             -11.60     8200.00
04247              25.00     8400.00
04248               2.00     8600.00
04249             -18.80     8600.00
04250              18.60     8800.00
04251              14.20     9200.00
04252             -14.60     9200.00
04253               8.60     9200.00
04254              16.20     9600.00
04255              -4.60     9800.00
04256              -1.20     9800.00
04257              12.20    10000.00
04258               6.20    10200.00
04259              -0.60    10200.00
04260               6.20    10200.00
04261              10.60    10400.00
04262               3.00    10600.00
04263               1.20    10800.00
04264              10.80    10800.00
04265               6.80    11000.00
04266               0.40    11200.00
04267              10.20    11200.00
04268              10.40    11600.00
04269               1.00    11600.00
04270               7.40    11600.00
04271              12.20    11800.00
04272               3.60    12000.00
04273               5.20    12000.00
04274              13.20    12000.00
04275               7.40    12400.00
04276               5.00    12400.00
04277              11.00    12400.00
04278              10.00    12600.00
04279               6.40    12600.00
04280              10.60    12800.00
04281              12.20    12800.00
04282               9.00    12800.00
04283               9.80    13000.00
04284              13.20    13200.00
04285              11.60    13000.00
04286               9.80    13200.00
04287              13.00    13200.00
04288              14.60    13400.00
04289              12.20    13400.00
04290              12.60    13400.00
04291              15.40    13600.00
04292              14.80    13600.00
04293              13.20    13600.00
04294              17.40    13600.00
04295              16.20    13800.00
04296              15.20    14000.00
04297              18.80    14000.00
04298              19.00    14000.00
04299              17.20    14000.00
04300              19.60    14000.00
04301              20.80    14200.00
04302              20.40    14000.00
04303              21.00    14000.00
04304              22.00    14000.00
04305              22.20    14000.00
04306              23.20    14000.00
04307              24.20    14200.00
04308              23.60    14200.00
04309              24.20    14200.00
04310              25.00    14200.00
04311              25.00    14200.00
04312              25.00    14000.00
04313              25.00    14000.00
04314              24.20    14200.00
04315              23.60    14000.00
04316              23.60    14200.00
04317              22.00    14200.00
04318              21.00    14000.00
04319              20.40    14000.00
04320              19.60    14000.00
04321              18.60    14000.00
04322              18.00    14000.00
04323              16.80    14000.00
04324              17.00    14000.00
04325              16.40    14000.00
04326              15.60    13800.00
04327              14.80    13600.00
04328              15.80    13600.00
04329              13.80    13600.00
04330              13.00    13600.00
04331              13.80    13400.00
04332              12.60    13200.00
04333              11.60    13400.00
04334              12.40    13200.00
04335              11.60    13200.00
04336              10.60    13200.00
04337              10.60    13000.00
04338              11.00    12800.00
04339               9.80    12800.00
04340               9.40    12800.00
04341              10.00    12600.00
04342               9.40    12600.00
04343               8.80    12400.00
04344               9.00    12400.00
04345               8.60    12400.00
04346               8.20    12200.00
04347               7.80    12000.00
04348               8.20    12000.00
04349               7.40    11800.00
04350               6.80    11800.00
04351               7.20    11600.00
04352               6.80    11400.00
04353               6.60    11200.00
04354               6.20    11200.00
04355               6.20    11200.00
04356               6.60    10800.00
04357               5.80    11000.00
04358               5.40    10800.00
04359               5.80    10600.00
04360               5.40    10600.00
04361               5.20    10400.00
04362               5.40    10200.00
04363               5.00    10000.00
04364               4.60    10000.00
04365               4.60     9600.00
04366               4.40     9400.00
04367               4.20     9400.00
04368               4.20     9200.00
04369               3.40     9200.00
04370               3.80     9000.00
04371               3.80     8800.00
04372               3.60     8600.00
04373               3.60     8400.00
04374               3.40     8400.00
04375               3.40     8200.00
04376               3.00     8000.00
04377               2.80     7800.00
04378               3.00     7600.00
04379               2.80     7400.00
04380               2.80     7400.00
04381               2.80     7200.00
04382               2.60     6800.00
04383               2.20     6800.00
04384               2.80     6400.00
04385               2.20     6400.00
04386               2.00     6200.00
04387               2.00     6200.00
04388               2.00     6000.00
04389               2.00     5600.00
04390               2.00     5600.00
04391               1.80     5400.00
04392               1.80     5000.00
04393               1.80     4800.00
04394               1.80     4600.00
04395               1.40     4400.00
04396               1.00     4400.00
04397               1.40     4000.00
04398               1.40     4000.00
04399               0.60     3800.00
04400               1.00     3400.00
04401               1.00     3200.00
04402               0.80     3000.00
04403               0.60     2800.00
04404               1.00     2800.00
04405               0.40     2400.00
04406               0.40     2400.00
04407               0.60     2000.00
04408               0.40     2000.00
04409              -0.20     1600.00
04410               0.20     1400.00
04411               0.20     1200.00
04412               0.00     1000.00
04413              -0.60      800.00
04414               0.20      800.00
04415              -0.20      400.00
04416              -0.60      200.00
04417              -0.20        0.00
04418              -0.60     -200.00
04419              -0.20     -400.00
04420               1.80     -400.00
04421               0.20     -800.00
04422              -2.20     -800.00
04423               0.40    -1200.00
04424              -0.20    -1400.00
04425              -2.60    -1600.00
04426               2.00    -1800.00
04427              21.20    -2000.00
04428               5.20    -2600.00
04429             -25.00    -2600.00
04430             -11.60    -2800.00
04431               3.80    -2600.00
04432              25.00    -2800.00
04433              25.00    -3400.00
04434             -25.00    -3200.00
04435              25.00    -3400.00
04436              25.00    -4000.00
04437             -25.00    -3800.00
04438             -22.20    -4200.00
04439              25.00    -4600.00
04440             -25.00    -4200.00
04441             -15.60    -4800.00
04442              25.00    -4800.00
04443             -25.00    -5000.00
04444              11.60    -5600.00
04445             -25.00    -5600.00
04446              19.20    -5800.00
04447              25.00    -6000.00
04448             -25.00    -6000.00
04449              25.00    -6400.00
04450              25.00    -6400.00
04451             -25.00    -6600.00
04452              -6.60    -6800.00
04453              25.00    -6800.00
04454               5.80    -7400.00
04455             -25.00    -7400.00
04456              25.00    -7600.00
04457              25.00    -7800.00
04458             -25.00    -8000.00
04459               8.60    -8200.00
04460              19.60    -8200.00
04461             -18.80    -8400.00
04462             -21.40    -8800.00
04463              18.20    -8800.00
04464               1.40    -9000.00
04465             -25.00    -9000.00
04466              13.00    -9200.00
04467              -0.40    -9400.00
04468             -17.00    -9600.00
04469              -5.00    -9800.00
04470               3.00   -10000.00
04471              -6.60   -10000.00
04472             -13.20   -10000.00
04473               2.00   -10200.00
04474              -2.60   -10400.00
04475             -13.40   -10600.00
04476              -7.00   -10800.00
04477               2.20   -10800.00
04478             -13.40   -11000.00
04479              -9.20   -11000.00
04480               2.20   -11200.00
04481             -10.60   -11400.00
04482             -11.40   -11600.00
04483              -2.20   -11600.00
04484              -5.20   -11800.00
04485             -16.20   -11800.00
04486              -5.00   -12000.00
04487              -3.00   -12200.00
04488             -14.20   -12200.00
04489              -9.40   -12200.00
04490              -4.00   -12400.00
04491             -11.80   -12400.00
04492             -12.40   -12600.00
04493              -6.20   -12600.00
04494             -10.20   -12800.00
04495             -13.40   -12800.00
04496             -10.00   -13000.00
04497              -7.80   -13200.00
04498             -14.20   -13000.00
04499             -14.00   -13200.00
04500              -9.40   -13400.00
04501             -13.20   -13200.00
04502             -15.40   -13200.00
04503             -13.20   -13400.00
04504             -12.60   -13600.00
04505             -15.80   -13600.00
04506             -15.40   -13600.00
04507             -14.00   -13600.00
04508             -17.40   -13600.00
04509             -17.80   -13800.00
04510             -16.40   -13800.00
04511             -17.20   -13800.00
04512             -19.40   -13800.00
04513             -19.40   -13800.00
04514             -18.80   -14000.00
04515             -20.20   -14000.00
04516             -22.00   -14000.00
04517             -22.20   -14000.00
04518             -21.60   -14000.00
04519             -22.20   -14000.00
04520             -23.80   -14000.00
04521             -24.20   -14200.00
04522             -23.60   -13800.00
04523             -25.00   -14200.00
04524             -25.00   -14000.00
04525             -24.60   -14200.00
04526             -25.00   -14000.00
04527             -25.00   -14000.00
04528             -23.80   -14000.00
04529             -23.80   -14000.00
04530             -24.00   -14000.00
04531             -22.20   -13800.00
04532             -21.20   -13800.00
04533             -21.20   -14200.00
04534             -19.60   -14000.00
04535             -18.80   -13800.00
04536             -18.60   -14000.00
04537             -18.00   -13800.00
04538             -16.60   -13800.00
04539             -16.60   -13800.00
04540             -16.40   -13600.00
04541             -15.60   -13800.00
04542             -14.20   -13600.00
04543             -14.20   -13600.00
04544             -14.40   -13400.00
04545             -14.00   -13600.00
04546             -13.20   -13200.00
04547             -12.40   -13200.00
04548             -12.60   -13200.00
04549             -12.80   -13200.00
04550             -11.60   -13000.00
04551             -11.00   -13000.00
04552             -11.40   -12800.00
04553             -10.80   -12800.00
04554             -10.20   -12800.00
04555             -10.80   -12600.00
04556              -9.80   -12600.00
04557              -9.20   -12400.00
04558             -10.00   -12400.00
04559              -8.60   -12200.00
04560              -8.40   -12200.00
04561              -9.00   -12000.00
04562              -8.40   -12000.00
04563              -9.20   -11800.00
04564              -7.00   -11800.00
04565              -7.40   -11600.00
04566              -7.80   -11400.00
04567              -6.60   -11200.00
04568              -8.20   -11200.00
04569              -6.80   -11000.00
04570              -5.20   -11000.00
04571              -8.20   -10800.00
04572              -6.60   -10600.00
04573              -4.40   -10400.00
04574              -6.60   -10400.00
04575              -6.80   -10200.00
04576              -4.00   -10000.00
04577              -5.80   -10000.00
04578              -5.80    -9800.00
04579              -4.40    -9600.00
04580              -5.20    -9600.00
04581              -5.20    -9400.00
04582              -4.60    -9200.00
04583              -5.00    -9200.00
04584              -4.40    -9000.00
04585              -3.80    -8800.00
04586              -4.40    -8400.00
04587              -4.20    -8400.00
04588              -3.60    -8200.00
04589              -4.20    -8000.00
04590              -3.80    -7800.00
04591              -3.40    -7600.00
04592              -3.60    -7600.00
04593              -3.00    -7400.00
04594              -3.00    -7200.00
04595              -4.40    -7200.00
04596              -3.00    -6800.00
04597              -2.20    -6800.00
04598              -3.80    -6400.00
04599              -3.40    -6400.00
04600              -2.00    -6200.00
04601              -2.80    -6000.00
04602              -3.80    -5800.00
04603              -2.20    -5800.00
04604              -1.80    -5600.00
04605              -3.60    -5200.00
04606              -2.20    -5000.00
04607              -1.20    -4600.00
04608              -3.00    -4600.00
04609              -2.80    -4400.00
04610              -1.00    -4400.00
04611              -1.80    -4000.00
04612              -2.80    -3800.00
04613              -1.80    -3800.00
04614              -1.20    -3400.00
04615              -2.40    -3200.00
04616              -1.80    -3200.00
04617              -0.60    -2800.00
04618              -2.00    -2600.00
04619              -1.40    -2400.00
04620              -0.60    -2200.00
04621              -1.20    -2000.00
04622              -1.60    -1800.00
04623              -0.60    -1600.00
04624              -0.40    -1400.00
04625              -1.00    -1200.00
04626              -1.00    -1000.00
04627              -0.40     -800.00
04628              -0.80     -400.00
04629              -0.60     -400.00
04630              -0.40     -200.00
04631              -0.20        0.00
04632              -0.60      200.00
04633               1.00      400.00
04634               2.20      800.00
04635              -0.60      800.00
04636              -0.60     1000.00
04637               1.60     1200.00
04638               0.40     1400.00
04639              -0.20     1800.00
04640               3.00     2000.00
04641              14.00     2000.00
04642              14.40     2200.00
04643             -25.00     2600.00
04644             -20.40     2800.00
04645               9.00     2800.00
04646               1.80     3000.00
04647              25.00     3200.00
04648             -25.00     3200.00
04649             -25.00     3800.00
04650              25.00     3800.00
04651               8.20     3800.00
04652             -25.00     4200.00
04653              25.00     4400.00
04654              23.20     4400.00
04655             -25.00     5000.00
04656              25.00     5000.00
04657              10.00     5200.00
04658             -16.60     5400.00
04659               2.60     5600.00
04660               3.60     5800.00
04661              16.60     6000.00
04662             -20.40     6400.00
04663              -3.80     6400.00
04664              25.00     6400.00
04665              -2.80     7000.00
04666             -23.80     6800.00
04667              10.80     7000.00
04668              25.00     7200.00
04669             -22.00     7600.00
04670             -13.00     7800.00
04671              25.00     7800.00
04672              -3.60     8200.00
04673             -19.80     8200.00
04674              23.20     8400.00
04675              10.80     8600.00
04676             -21.20     8800.00
04677              11.60     8800.00
04678              21.40     9200.00
04679             -12.80     9200.00
04680               1.00     9400.00
04681              19.40     9400.00
04682              -1.20     9800.00
04683              -4.60     9600.00
04684              11.40    10000.00
04685               9.20    10000.00
04686              -1.20    10200.00
04687               4.20    10400.00
04688              11.00    10400.00
04689               4.00    10600.00
04690               0.40    10800.00
04691              10.00    11000.00
04692               8.20    11000.00
04693               0.20    11000.00
04694               9.20    11200.00
04695              10.60    11400.00
04696               1.60    11600.00
04697               6.40    11800.00
04698              12.20    11800.00
04699               5.00    12000.00
04700               5.20    12000.00
04701              12.60    12000.00
04702               8.40    12200.00
04703               5.20    12400.00
04704              10.60    12400.00
04705              10.20    12600.00
04706               7.00    12600.00
04707              10.00    12800.00
04708              11.60    12800.00
04709               9.80    12800.00
04710              10.20    12800.00
04711              12.40    13200.00
04712              11.80    13000.00
04713              10.60    13200.00
04714              12.20    13400.00
04715              14.60    13400.00
04716              12.60    13400.00
04717              12.60    13400.00
04718              15.40    13600.00
04719              14.80    13600.00
04720              14.00    13600.00
04721              16.20    13600.00
04722              16.60    13600.00
04723              15.80    13600.00
04724              17.00    13600.00
04725              19.00    13800.00
04726              18.40    14000.00
04727              18.20    14000.00
04728              20.40    14000.00
04729              21.00    14000.00
04730              20.40    14000.00
04731              21.80    14000.00
04732              22.60    14000.00
04733              23.00    14200.00
04734              23.40    14000.00
04735              23.80    14200.00
04736              24.40    14200.00
04737              24.40    14000.00
04738              25.00    14200.00
04739              25.00    14200.00
04740              25.00    14200.00
04741              24.20    14000.00
04742              24.20    14200.00
04743              23.40    14200.00
04744              21.80    14000.00
04745              21.20    14000.00
04746              20.40    14000.00
04747              19.40    14000.00
04748              19.00    14000.00
04749              18.00    14000.00
04750              16.40    14000.00
04751              17.20    14000.00
04752              17.00    13800.00
04753              15.60    13800.00
04754              14.80    13600.00
04755              15.00    13600.00
04756              14.00    13600.00
04757              13.00    13400.00
04758              13.40    13600.00
04759              13.00    13400.00
04760              12.20    13200.00
04761              12.40    13200.00
04762              11.80    13200.00
04763              10.80    13000.00
04764              10.60    13000.00
04765              11.20    12800.00
04766              10.20    12800.00
04767              10.00    12800.00
04768              10.00    12600.00
04769               9.80    12800.00
04770               9.00    12600.00
04771               8.60    12400.00
04772               9.00    12200.00
04773               8.40    12400.00
04774               8.20    12000.00
04775               7.80    12000.00
04776               6.80    12000.00
04777               7.40    11800.00
04778               8.40    11600.00
04779               7.00    11600.00
04780               6.00    11200.00
04781               7.00    11400.00
04782               6.00    11200.00
04783               5.40    11000.00
04784               6.40    11000.00
04785               6.60    11000.00
04786               5.40    10800.00
04787               5.20    10600.00
04788               5.40    10400.00
04789               5.20    10200.00
04790               4.20    10000.00
04791               4.00    10000.00
04792               5.80     9600.00
04793               5.80     9400.00
04794               2.40     9400.00
04795               3.40     9200.00
04796               4.80     9200.00
04797               3.00     9000.00
04798               3.00     8800.00
04799               5.40     8600.00
04800               3.20     8400.00
04801               2.80     8400.00
04802               3.60     8200.00
04803               3.00     8000.00
04804               2.80     8000.00
04805               2.80     7600.00
04806               3.60     7600.00
04807               3.00     7200.00
04808               2.80     7200.00
04809               1.80     7000.00
04810               2.20     6800.00
04811               2.00     6800.00
04812               1.80     6400.00
04813               3.00     6200.00
04814               1.80     6000.00
04815               1.80     5800.00
04816               3.00     5600.00
04817               1.40     5600.00
04818               0.40     5400.00
04819               1.80     5200.00
04820               2.60     4800.00
04821               0.60     4600.00
04822               1.80     4400.00
04823               2.60     4400.00
04824               1.20     4000.00
04825               1.20     4000.00
04826               0.00     3800.00
04827               1.20     3400.00
04828               1.00     3200.00
04829               0.20     3200.00
04830               2.00     3000.00
04831               1.40     2800.00
04832               0.20     2600.00
04833              -0.40     2400.00
04834               1.00     2200.00
04835               0.80     2000.00
04836              -0.40     1600.00
04837               0.40     1600.00
04838               1.40     1200.00
04839               0.60     1200.00
04840              -0.80     1000.00
04841               0.40      800.00
04842               0.60      400.00
04843              -1.00      400.00
04844              -1.20        0.00
04845               0.60        0.00
04846              -0.40     -200.00
04847               0.40     -400.00
04848               2.00     -600.00
04849              -0.60    -1000.00
04850              -2.20    -1200.00
04851               0.60    -1200.00
04852               0.40    -1600.00
04853              -1.00    -1600.00
04854              14.20    -1800.00
04855              20.20    -2400.00
04856             -25.00    -2600.00
04857             -23.40    -2600.00
04858               7.00    -2800.00
04859              25.00    -2800.00
04860              25.00    -3400.00
04861             -25.00    -3200.00
04862               9.40    -3400.00
04863              25.00    -4000.00
04864             -25.00    -4000.00
04865             -25.00    -4000.00
04866              25.00    -4600.00
04867             -25.00    -4400.00
04868             -25.00    -4600.00
04869              25.00    -5000.00
04870             -25.00    -5000.00
04871               0.40    -5600.00
04872             -14.60    -5400.00
04873               2.60    -5600.00
04874              25.00    -6000.00
04875             -25.00    -5800.00
04876              15.00    -6600.00
04877              25.00    -6400.00
04878             -25.00    -6600.00
04879             -15.40    -7200.00
04880              24.40    -6800.00
04881              16.20    -7200.00
04882             -25.00    -7400.00
04883               6.60    -7400.00
04884              25.00    -8000.00
04885             -25.00    -7800.00
04886              -4.60    -8200.00
04887              25.00    -8200.00
04888             -13.40    -8400.00
04889             -25.00    -8800.00
04890              11.80    -8800.00
04891              11.80    -8800.00
04892             -25.00    -9000.00
04893               5.80    -9200.00
04894               7.80    -9200.00
04895             -17.40    -9600.00
04896              -7.60    -9800.00
04897               2.80    -9800.00
04898              -2.80   -10000.00
04899             -15.00   -10000.00
04900               0.00   -10400.00
04901               0.20   -10400.00
04902             -11.80   -10600.00
04903              -9.20   -10600.00
04904               2.20   -10800.00
04905              -9.40   -10800.00
04906             -11.80   -11000.00
04907               1.80   -11000.00
04908              -8.40   -11400.00
04909             -11.60   -11400.00
04910              -4.40   -11600.00
04911              -3.60   -11600.00
04912             -14.00   -12000.00
04913              -7.60   -12000.00
04914              -2.00   -12000.00
04915             -12.20   -12200.00
04916             -11.00   -12400.00
04917              -4.60   -12400.00
04918              -9.40   -12400.00
04919             -13.40   -12600.00
04920              -7.60   -12800.00
04921              -8.40   -13000.00
04922             -13.20   -12800.00
04923             -11.80   -13000.00
04924              -8.20   -13000.00
04925             -12.60   -13200.00
04926             -15.40   -13200.00
04927             -10.20   -13200.00
04928             -11.20   -13200.00
04929             -14.80   -13600.00
04930             -14.40   -13400.00
04931             -12.40   -13600.00
04932             -15.20   -13600.00
04933             -17.20   -13600.00
04934             -13.80   -13600.00
04935             -16.20   -13600.00
04936             -18.60   -13800.00
04937             -16.60   -13800.00
04938             -16.60   -13800.00
04939             -19.80   -14000.00
04940             -20.40   -13800.00
04941             -18.60   -14000.00
04942             -20.20   -14000.00
04943             -22.00   -13800.00
04944             -22.00   -14000.00
04945             -22.20   -14000.00
04946             -23.00   -14000.00
04947             -23.80   -14000.00
04948             -24.20   -14200.00
04949             -23.80   -14000.00
04950             -25.00   -14200.00
04951             -25.00   -14000.00
04952             -25.00   -14000.00
04953             -25.00   -14000.00
04954             -25.00   -14000.00
04955             -25.00   -14000.00
04956             -23.60   -14000.00
04957             -23.60   -14000.00
04958             -22.80   -14000.00
04959             -21.20   -14000.00
04960             -20.40   -14000.00
04961             -19.80   -13800.00
04962             -19.40   -14000.00
04963             -18.60   -13800.00
04964             -17.60   -13800.00
04965             -17.00   -13800.00
04966             -16.40   -13800.00
04967             -16.00   -13800.00
04968             -15.60   -13600.00
04969             -14.80   -13600.00
04970             -14.20   -13600.00
04971             -14.00   -13600.00
04972             -14.00   -13400.00
04973             -12.60   -13200.00
04974             -12.60   -13200.00
04975             -12.60   -13200.00
04976             -12.40   -13200.00
04977             -11.60   -13200.00
04978             -11.20   -12800.00
04979             -11.00   -13000.00
04980             -10.40   -12800.00
04981             -10.20   -12600.00
04982             -10.80   -12800.00
04983              -9.80   -12800.00
04984              -9.20   -12400.00
04985             -10.20   -12400.00
04986              -9.20   -12200.00
04987              -8.40   -12200.00
04988              -9.00   -12000.00
04989              -9.20   -12000.00
04990              -8.40   -12000.00
04991              -7.40   -11800.00
04992              -7.40   -11600.00
04993              -7.60   -11400.00
04994              -7.20   -11200.00
04995              -7.00   -11400.00
04996              -7.00   -11000.00
04997              -7.00   -11000.00
04998              -6.00   -10800.00
04999              -7.00   -10600.00
05000              -7.00   -10600.00
