Unit:(mV)
                     CH1         CH2
Frequency              ? 261.357 kHz
00001              -4.00    -4000.00
00002              -4.00    -3800.00
00003              -6.00    -3600.00
00004              -8.00    -3600.00
00005              -8.00    -3200.00
00006              -8.00    -3200.00
00007              -8.00    -2800.00
00008              -4.00    -2800.00
00009              -4.00    -2400.00
00010              -4.00    -2400.00
00011             -10.00    -2200.00
00012             -10.00    -2000.00
00013              -8.00    -1800.00
00014              -6.00    -1600.00
00015              -4.00    -1200.00
00016              -2.00    -1200.00
00017              -8.00    -1000.00
00018             -10.00     -800.00
00019              -8.00     -800.00
00020              -8.00     -400.00
00021              -6.00     -400.00
00022              -2.00     -200.00
00023              -2.00        0.00
00024              -2.00      200.00
00025              20.00      400.00
00026              16.00      600.00
00027             -16.00      800.00
00028             -24.00     1000.00
00029               4.00     1200.00
00030              20.00     1200.00
00031              36.00     1400.00
00032             238.00     1800.00
00033             220.00     2200.00
00034            -248.00     2200.00
00035            -248.00     2400.00
00036             -16.00     2400.00
00037             252.00     2600.00
00038             252.00     2800.00
00039             -26.00     3000.00
00040            -248.00     3000.00
00041             212.00     3400.00
00042             252.00     3600.00
00043            -248.00     3800.00
00044            -248.00     3800.00
00045             180.00     4000.00
00046              56.00     4400.00
00047             252.00     4000.00
00048             -66.00     4800.00
00049            -248.00     5000.00
00050             252.00     4600.00
00051             252.00     5400.00
00052             -94.00     5200.00
00053             -66.00     5000.00
00054            -248.00     6200.00
00055             118.00     5800.00
00056             252.00     5600.00
00057            -106.00     6400.00
00058            -248.00     6200.00
00059             -72.00     6400.00
00060             252.00     6800.00
00061              64.00     6600.00
00062            -218.00     7000.00
00063              14.00     7000.00
00064             -38.00     7400.00
00065              82.00     7400.00
00066             108.00     7600.00
00067            -170.00     7800.00
00068             -10.00     7600.00
00069              68.00     8000.00
00070              -8.00     8200.00
00071             -18.00     7800.00
00072             -32.00     8600.00
00073              20.00     8400.00
00074             -10.00     8400.00
00075              22.00     8800.00
00076             -28.00     8600.00
00077             -58.00     9000.00
00078              78.00     8800.00
00079              -8.00     9200.00
00080             -58.00     9200.00
00081              28.00     9400.00
00082             -10.00     9600.00
00083             -20.00     9400.00
00084               8.00     9800.00
00085              -4.00     9800.00
00086             -10.00     9600.00
00087               4.00    10000.00
00088              -4.00    10000.00
00089             -32.00    10200.00
00090              22.00    10200.00
00091               8.00    10200.00
00092             -32.00    10400.00
00093               6.00    10400.00
00094              -2.00    10800.00
00095             -16.00    10400.00
00096              12.00    10800.00
00097             -12.00    10800.00
00098             -30.00    10800.00
00099              16.00    11000.00
00100              26.00    11000.00
00101             -20.00    11200.00
00102             -20.00    11200.00
00103               0.00    11200.00
00104              -8.00    11200.00
00105               6.00    11200.00
00106               6.00    11200.00
00107             -20.00    11200.00
00108              -4.00    11200.00
00109               8.00    11400.00
00110             -14.00    11400.00
00111               2.00    11400.00
00112               6.00    11600.00
00113             -16.00    11200.00
00114               6.00    11600.00
00115               4.00    11400.00
00116             -22.00    11200.00
00117              -2.00    11600.00
00118               6.00    11400.00
00119              -6.00    11400.00
00120               0.00    11400.00
00121               4.00    11600.00
00122             -18.00    11600.00
00123               0.00    11600.00
00124              12.00    11600.00
00125             -16.00    11600.00
00126              -4.00    11400.00
00127              12.00    11200.00
00128              -4.00    11200.00
00129             -10.00    11200.00
00130              -4.00    11400.00
00131              -4.00    11200.00
00132              -2.00    11000.00
00133               4.00    11200.00
00134              -4.00    11000.00
00135              -6.00    11200.00
00136              -4.00    11000.00
00137              -6.00    11000.00
00138              -4.00    10800.00
00139               4.00    11000.00
00140              -6.00    10600.00
00141              -4.00    10800.00
00142               4.00    10600.00
00143              -6.00    10400.00
00144             -10.00    10200.00
00145               0.00    10200.00
00146               4.00    10000.00
00147              -2.00    10200.00
00148              -4.00    10000.00
00149              -4.00    10000.00
00150              -4.00    10000.00
00151              -2.00     9800.00
00152               2.00     9600.00
00153              -4.00     9600.00
00154              -4.00     9400.00
00155              -2.00     9400.00
00156              -4.00     9200.00
00157               0.00     9200.00
00158              -2.00     9000.00
00159              -6.00     8800.00
00160               0.00     8800.00
00161               0.00     8600.00
00162              -4.00     8600.00
00163              -2.00     8400.00
00164              -2.00     8400.00
00165              -2.00     8000.00
00166               2.00     8000.00
00167               2.00     8000.00
00168              -4.00     7800.00
00169              -4.00     7600.00
00170               0.00     7600.00
00171               0.00     7400.00
00172               4.00     7200.00
00173               0.00     7000.00
00174               0.00     6800.00
00175               0.00     6800.00
00176              -2.00     6800.00
00177              -8.00     6400.00
00178               4.00     6400.00
00179               4.00     6000.00
00180               0.00     6000.00
00181              -2.00     5600.00
00182               0.00     5800.00
00183              -2.00     5400.00
00184               2.00     5400.00
00185               4.00     5200.00
00186               0.00     5000.00
00187               0.00     4800.00
00188               0.00     4600.00
00189               2.00     4600.00
00190              -2.00     4400.00
00191              -2.00     4000.00
00192               2.00     3800.00
00193               4.00     3800.00
00194               2.00     3600.00
00195               0.00     3400.00
00196              -2.00     3200.00
00197               0.00     3000.00
00198               0.00     2800.00
00199               4.00     2600.00
00200               4.00     2400.00
00201              -2.00     2200.00
00202              -4.00     2200.00
00203               0.00     2000.00
00204               0.00     1600.00
00205              -2.00     1600.00
00206               2.00     1400.00
00207               4.00     1200.00
00208               0.00     1000.00
00209              -2.00      800.00
00210              -2.00      600.00
00211              -2.00      400.00
00212               0.00      200.00
00213               4.00        0.00
00214               6.00     -200.00
00215               4.00     -400.00
00216              22.00     -400.00
00217              30.00     -600.00
00218              -2.00    -1000.00
00219             -20.00    -1000.00
00220               4.00    -1200.00
00221              22.00    -1200.00
00222              24.00    -1400.00
00223              70.00    -1600.00
00224             252.00    -2000.00
00225             120.00    -2600.00
00226            -248.00    -2600.00
00227            -248.00    -2800.00
00228             108.00    -3000.00
00229             252.00    -2600.00
00230             252.00    -2800.00
00231             110.00    -3600.00
00232            -248.00    -3200.00
00233             -84.00    -3400.00
00234             252.00    -4400.00
00235               4.00    -3600.00
00236            -248.00    -4000.00
00237             -64.00    -4600.00
00238             194.00    -4000.00
00239             252.00    -5000.00
00240             -52.00    -5000.00
00241            -248.00    -4600.00
00242              38.00    -5200.00
00243             252.00    -5200.00
00244             102.00    -5200.00
00245            -228.00    -5800.00
00246            -248.00    -5600.00
00247             172.00    -6000.00
00248             252.00    -6000.00
00249             -60.00    -6200.00
00250            -248.00    -6600.00
00251             -40.00    -6600.00
00252             252.00    -6800.00
00253             100.00    -7000.00
00254            -168.00    -7000.00
00255            -138.00    -7400.00
00256              54.00    -7200.00
00257             198.00    -7600.00
00258               0.00    -7400.00
00259            -164.00    -7800.00
00260              -8.00    -8000.00
00261             100.00    -8000.00
00262              48.00    -8200.00
00263             -58.00    -8400.00
00264             -68.00    -8400.00
00265              44.00    -8800.00
00266              78.00    -8800.00
00267             -14.00    -9000.00
00268             -82.00    -9200.00
00269              -4.00    -9200.00
00270              70.00    -9200.00
00271              24.00    -9400.00
00272             -34.00    -9600.00
00273             -34.00    -9600.00
00274              14.00    -9600.00
00275              40.00    -9800.00
00276              -4.00    -9800.00
00277             -28.00   -10000.00
00278               4.00   -10000.00
00279              28.00   -10000.00
00280               4.00   -10200.00
00281             -18.00   -10400.00
00282             -10.00   -10400.00
00283               6.00   -10400.00
00284              22.00   -10400.00
00285               4.00   -10600.00
00286             -18.00   -10600.00
00287              -4.00   -10800.00
00288               6.00   -10800.00
00289               2.00   -10800.00
00290              -4.00   -11000.00
00291               4.00   -10800.00
00292              10.00   -11200.00
00293               4.00   -11200.00
00294              -6.00   -11200.00
00295              -8.00   -11200.00
00296               4.00   -11200.00
00297              12.00   -11400.00
00298               0.00   -11400.00
00299               0.00   -11400.00
00300              -4.00   -11400.00
00301              -8.00   -11600.00
00302               4.00   -11600.00
00303               6.00   -11400.00
00304               2.00   -11600.00
00305               4.00   -11400.00
00306               2.00   -11600.00
00307              -4.00   -11600.00
00308              -4.00   -11600.00
00309               4.00   -11400.00
00310               4.00   -11400.00
00311               6.00   -11400.00
00312               4.00   -11400.00
00313              -2.00   -11600.00
00314              -4.00   -11600.00
00315              -2.00   -11600.00
00316               0.00   -11400.00
00317               6.00   -11600.00
00318               6.00   -11400.00
00319               0.00   -11400.00
00320              -4.00   -11400.00
00321              -2.00   -11400.00
00322              -4.00   -11200.00
00323               0.00   -11200.00
00324               4.00   -11000.00
00325               2.00   -11200.00
00326              -2.00   -11200.00
00327              -4.00   -11200.00
00328              -4.00   -11000.00
00329              -2.00   -11000.00
00330               0.00   -10800.00
00331               2.00   -10800.00
00332              -2.00   -10800.00
00333              -4.00   -10800.00
00334              -8.00   -10600.00
00335              -4.00   -10600.00
00336              -2.00   -10400.00
00337               0.00   -10400.00
00338               0.00   -10400.00
00339              -2.00   -10200.00
00340              -8.00   -10000.00
00341              -6.00   -10000.00
00342              -4.00    -9800.00
00343              -4.00    -9800.00
00344               0.00    -9600.00
00345              -2.00    -9600.00
00346              -4.00    -9600.00
00347              -8.00    -9200.00
00348              -4.00    -9200.00
00349              -4.00    -9200.00
00350              -4.00    -9000.00
00351              -2.00    -9000.00
00352              -4.00    -8800.00
00353              -4.00    -8800.00
00354             -10.00    -8800.00
00355              -8.00    -8400.00
00356              -2.00    -8200.00
00357              -4.00    -8200.00
00358              -2.00    -8000.00
00359              -2.00    -7800.00
00360              -4.00    -7600.00
00361              -8.00    -7600.00
00362              -4.00    -7400.00
00363              -2.00    -7400.00
00364              -2.00    -7200.00
00365              -2.00    -7000.00
00366              -4.00    -6800.00
00367              -4.00    -6600.00
00368              -6.00    -6600.00
00369              -4.00    -6400.00
00370               0.00    -6200.00
00371              -2.00    -6000.00
00372              -4.00    -5800.00
00373              -4.00    -5800.00
00374              -8.00    -5600.00
00375              -4.00    -5400.00
00376              -4.00    -5200.00
00377              -2.00    -5000.00
00378              -2.00    -5000.00
00379              -4.00    -4800.00
00380              -8.00    -4600.00
00381              -4.00    -4400.00
00382              -8.00    -4200.00
00383              -4.00    -4200.00
00384              -2.00    -4000.00
00385              -2.00    -3600.00
00386              -6.00    -3600.00
00387              -6.00    -3200.00
00388              -8.00    -3200.00
00389              -4.00    -3000.00
00390              -2.00    -2800.00
00391              -4.00    -2600.00
00392              -4.00    -2400.00
00393              -4.00    -2400.00
00394             -10.00    -2000.00
00395              -8.00    -1800.00
00396              -4.00    -1600.00
00397              -4.00    -1600.00
00398              -2.00    -1200.00
00399              -4.00    -1200.00
00400              -6.00    -1000.00
00401             -10.00     -800.00
00402              -8.00     -600.00
00403              -4.00     -400.00
00404              -2.00     -200.00
00405               0.00        0.00
00406              -2.00        0.00
00407               6.00      400.00
00408              22.00      600.00
00409               4.00      600.00
00410             -26.00     1000.00
00411             -16.00     1000.00
00412              12.00     1000.00
00413              22.00     1400.00
00414              86.00     1600.00
00415             252.00     2000.00
00416               6.00     2200.00
00417            -248.00     2400.00
00418            -248.00     2400.00
00419             152.00     2400.00
00420             252.00     2800.00
00421             252.00     3000.00
00422            -248.00     2800.00
00423            -248.00     3200.00
00424             252.00     3200.00
00425             252.00     3800.00
00426            -248.00     3800.00
00427            -198.00     3800.00
00428             172.00     4400.00
00429             138.00     4200.00
00430             252.00     4400.00
00431            -248.00     5200.00
00432            -248.00     4800.00
00433             252.00     4800.00
00434              96.00     5400.00
00435             -70.00     5200.00
00436            -154.00     5200.00
00437            -220.00     6200.00
00438             252.00     5600.00
00439             206.00     6200.00
00440            -232.00     6600.00
00441            -234.00     6000.00
00442              84.00     6800.00
00443             252.00     6800.00
00444            -116.00     6600.00
00445            -142.00     7200.00
00446              30.00     7000.00
00447             -40.00     7400.00
00448             156.00     7200.00
00449             -18.00     7600.00
00450            -156.00     7800.00
00451              64.00     7800.00
00452              30.00     8400.00
00453              -8.00     8000.00
00454             -32.00     8200.00
00455             -10.00     8600.00
00456              16.00     8200.00
00457             -10.00     8800.00
00458              28.00     8800.00
00459             -68.00     8800.00
00460              -4.00     9200.00
00461              76.00     9000.00
00462             -60.00     9200.00
00463             -18.00     9200.00
00464              24.00     9600.00
00465             -24.00     9600.00
00466              -4.00     9600.00
00467               4.00     9800.00
00468             -10.00     9800.00
00469             -10.00     9800.00
00470              12.00    10000.00
00471             -18.00    10000.00
00472             -20.00    10200.00
00473              24.00    10200.00
00474             -18.00    10400.00
00475             -20.00    10400.00
00476              16.00    10400.00
00477             -14.00    10600.00
00478              -8.00    10600.00
00479               8.00    10800.00
00480             -20.00    11000.00
00481             -18.00    10800.00
00482              24.00    11000.00
00483               4.00    11000.00
00484             -26.00    11000.00
00485              -4.00    11000.00
00486              -4.00    11200.00
00487              -8.00    11200.00
00488               6.00    11200.00
00489              -4.00    11400.00
00490             -18.00    11400.00
00491               4.00    11400.00
00492               0.00    11400.00
00493             -12.00    11200.00
00494              -2.00    11400.00
00495              -2.00    11600.00
00496              -4.00    11400.00
00497               4.00    11600.00
00498              -8.00    11600.00
00499             -18.00    11600.00
00500               4.00    11600.00
00501               6.00    11600.00
00502              -8.00    11400.00
00503              -2.00    11600.00
00504              -2.00    11600.00
00505             -10.00    11600.00
00506               0.00    11400.00
00507               4.00    11600.00
00508             -10.00    11200.00
00509               0.00    11400.00
00510               4.00    11200.00
00511             -10.00    11200.00
00512              -4.00    11200.00
00513              -4.00    11200.00
00514              -4.00    11200.00
00515               4.00    11000.00
00516               4.00    11200.00
00517              -8.00    11000.00
00518              -4.00    11000.00
00519              -2.00    11000.00
00520              -4.00    10800.00
00521              -2.00    10800.00
00522               2.00    10800.00
00523              -6.00    10600.00
00524              -4.00    10400.00
00525               0.00    10400.00
00526              -4.00    10400.00
00527              -4.00    10400.00
00528               2.00    10400.00
00529              -2.00    10200.00
00530              -2.00    10000.00
00531              -2.00    10000.00
00532              -8.00    10000.00
00533              -4.00     9800.00
00534               2.00    10000.00
00535              -2.00     9600.00
00536              -2.00     9600.00
00537              -4.00     9400.00
00538              -4.00     9400.00
00539              -2.00     9200.00
00540               0.00     9200.00
00541              -2.00     9000.00
00542              -2.00     8800.00
00543               0.00     8600.00
00544              -2.00     8600.00
00545              -4.00     8600.00
00546              -4.00     8400.00
00547              -2.00     8200.00
00548              -2.00     8000.00
00549               2.00     8000.00
00550              -2.00     7800.00
00551              -2.00     7600.00
00552              -2.00     7600.00
00553               0.00     7400.00
00554               0.00     7200.00
00555               2.00     7200.00
00556               0.00     7000.00
00557               4.00     6800.00
00558              -2.00     6800.00
00559              -4.00     6400.00
00560              -4.00     6400.00
00561               2.00     6400.00
00562               2.00     6000.00
00563               0.00     6000.00
00564              -2.00     5600.00
00565               0.00     5600.00
00566               0.00     5200.00
00567               4.00     5200.00
00568               2.00     5200.00
00569               0.00     4800.00
00570               0.00     4800.00
00571               0.00     4600.00
00572               0.00     4400.00
00573               0.00     4200.00
00574               0.00     4000.00
00575               4.00     3600.00
00576               4.00     3600.00
00577               2.00     3200.00
00578               0.00     3200.00
00579              -2.00     3000.00
00580               2.00     3000.00
00581               4.00     2800.00
00582               4.00     2600.00
00583               4.00     2400.00
00584               4.00     2200.00
00585               0.00     2000.00
00586               2.00     2000.00
00587               0.00     1600.00
00588               0.00     1400.00
00589               6.00     1400.00
00590               2.00     1200.00
00591              -2.00     1000.00
00592               0.00      800.00
00593              -2.00      600.00
00594               2.00      400.00
00595               0.00        0.00
00596               6.00        0.00
00597               6.00     -200.00
00598               8.00     -400.00
00599              28.00     -800.00
00600              18.00     -600.00
00601             -14.00    -1000.00
00602             -14.00    -1000.00
00603              16.00    -1200.00
00604              24.00    -1400.00
00605              28.00    -1600.00
00606             134.00    -1600.00
00607             252.00    -2000.00
00608             -94.00    -2600.00
00609            -248.00    -2800.00
00610            -248.00    -2800.00
00611             232.00    -3000.00
00612             252.00    -2600.00
00613             252.00    -3200.00
00614            -248.00    -3600.00
00615            -248.00    -3000.00
00616             252.00    -3800.00
00617             252.00    -4200.00
00618            -248.00    -3400.00
00619            -248.00    -4600.00
00620              76.00    -4400.00
00621             252.00    -4200.00
00622             252.00    -5000.00
00623            -248.00    -5000.00
00624            -248.00    -4800.00
00625             252.00    -5400.00
00626             252.00    -5200.00
00627             -40.00    -5600.00
00628            -248.00    -5600.00
00629            -120.00    -5600.00
00630             252.00    -6000.00
00631             206.00    -6000.00
00632            -204.00    -6400.00
00633            -248.00    -6600.00
00634             116.00    -6600.00
00635             252.00    -6800.00
00636             -28.00    -7000.00
00637            -186.00    -7200.00
00638             -82.00    -7400.00
00639             134.00    -7400.00
00640             162.00    -7600.00
00641            -104.00    -7600.00
00642            -130.00    -7800.00
00643              56.00    -8000.00
00644              92.00    -8000.00
00645              12.00    -8200.00
00646             -80.00    -8200.00
00647             -28.00    -8600.00
00648              76.00    -8800.00
00649              54.00    -8600.00
00650             -54.00    -9000.00
00651             -68.00    -9000.00
00652              38.00    -9200.00
00653              64.00    -9200.00
00654              -2.00    -9400.00
00655             -42.00    -9600.00
00656             -26.00    -9600.00
00657              32.00    -9800.00
00658              30.00    -9800.00
00659             -20.00    -9800.00
00660             -20.00   -10000.00
00661              16.00   -10000.00
00662              20.00   -10200.00
00663              -8.00   -10400.00
00664             -16.00   -10400.00
00665              -4.00   -10400.00
00666              12.00   -10600.00
00667              16.00   -10600.00
00668              -8.00   -10600.00
00669             -14.00   -10800.00
00670               4.00   -10800.00
00671               6.00   -10800.00
00672              -4.00   -10800.00
00673               0.00   -10800.00
00674               4.00   -11000.00
00675               6.00   -11200.00
00676               0.00   -11200.00
00677             -12.00   -11200.00
00678              -8.00   -11200.00
00679               8.00   -11200.00
00680               8.00   -11400.00
00681               0.00   -11400.00
00682              -4.00   -11400.00
00683              -4.00   -11400.00
00684              -4.00   -11400.00
00685               4.00   -11600.00
00686               6.00   -11400.00
00687               0.00   -11400.00
00688               4.00   -11400.00
00689              -4.00   -11600.00
00690              -8.00   -11600.00
00691              -4.00   -11600.00
00692               4.00   -11600.00
00693               4.00   -11400.00
00694               4.00   -11400.00
00695              -2.00   -11400.00
00696              -4.00   -11600.00
00697              -4.00   -11400.00
00698               0.00   -11400.00
00699              -2.00   -11400.00
00700               2.00   -11400.00
00701               4.00   -11400.00
00702              -2.00   -11400.00
00703              -4.00   -11200.00
00704              -4.00   -11200.00
00705              -2.00   -11200.00
00706               0.00   -11200.00
00707               6.00   -11200.00
00708               0.00   -11000.00
00709              -2.00   -10800.00
00710              -4.00   -11000.00
00711              -4.00   -10800.00
00712              -2.00   -10800.00
00713               4.00   -10800.00
00714               0.00   -10800.00
00715              -2.00   -10800.00
00716              -4.00   -10600.00
00717              -4.00   -10600.00
00718              -2.00   -10400.00
00719              -2.00   -10400.00
00720               0.00   -10400.00
00721               2.00   -10200.00
00722              -4.00   -10000.00
00723              -8.00   -10000.00
00724              -6.00   -10000.00
00725              -4.00    -9800.00
00726              -2.00    -9600.00
00727               0.00    -9600.00
00728              -2.00    -9600.00
00729              -4.00    -9600.00
00730              -8.00    -9400.00
00731              -4.00    -9200.00
00732              -2.00    -9200.00
00733              -2.00    -9200.00
00734              -2.00    -8800.00
00735              -4.00    -8600.00
00736              -6.00    -8800.00
00737              -8.00    -8400.00
00738              -4.00    -8400.00
00739              -4.00    -8400.00
00740              -2.00    -8000.00
00741              -4.00    -8000.00
00742              -4.00    -7800.00
00743              -6.00    -7600.00
00744             -10.00    -7600.00
00745              -4.00    -7400.00
00746              -4.00    -7400.00
00747               0.00    -7000.00
00748              -4.00    -7200.00
00749              -4.00    -6600.00
00750              -8.00    -6800.00
00751              -6.00    -6600.00
00752              -2.00    -6400.00
00753               0.00    -6200.00
00754              -2.00    -6000.00
00755              -4.00    -5800.00
00756              -8.00    -5600.00
00757              -8.00    -5400.00
00758              -8.00    -5200.00
00759              -4.00    -5200.00
00760              -4.00    -5200.00
00761              -2.00    -5000.00
00762              -4.00    -4600.00
00763              -8.00    -4800.00
00764              -4.00    -4400.00
00765              -4.00    -4200.00
00766              -2.00    -4000.00
00767              -2.00    -3800.00
00768              -4.00    -3800.00
00769              -4.00    -3400.00
00770              -4.00    -3200.00
00771              -8.00    -3200.00
00772              -4.00    -2800.00
00773              -2.00    -2800.00
00774              -2.00    -2600.00
00775              -4.00    -2400.00
00776              -8.00    -2400.00
00777              -8.00    -2000.00
00778              -4.00    -1800.00
00779              -4.00    -1800.00
00780              -2.00    -1400.00
00781              -4.00    -1200.00
00782              -4.00    -1200.00
00783              -4.00     -800.00
00784              -4.00     -800.00
00785             -10.00     -600.00
00786             -10.00     -400.00
00787               0.00     -200.00
00788               0.00        0.00
00789               0.00        0.00
00790              14.00      400.00
00791              14.00      600.00
00792              -8.00      800.00
00793             -20.00     1000.00
00794               0.00     1000.00
00795              14.00     1200.00
00796              20.00     1400.00
00797             172.00     1600.00
00798             252.00     2000.00
00799            -248.00     2200.00
00800            -248.00     2400.00
00801            -160.00     2400.00
00802             252.00     2400.00
00803             252.00     2800.00
00804             252.00     3000.00
00805            -248.00     2800.00
00806            -248.00     3400.00
00807             252.00     3400.00
00808             134.00     3800.00
00809            -248.00     3800.00
00810              92.00     4000.00
00811              80.00     4400.00
00812             252.00     4000.00
00813             176.00     4600.00
00814            -248.00     5200.00
00815              44.00     4600.00
00816             252.00     5200.00
00817             -62.00     5600.00
00818             -50.00     5000.00
00819            -248.00     6000.00
00820             -32.00     6000.00
00821             252.00     5600.00
00822               6.00     6400.00
00823            -248.00     6200.00
00824            -154.00     6000.00
00825             230.00     7000.00
00826             178.00     6600.00
00827            -218.00     7000.00
00828             -36.00     7200.00
00829             -10.00     7200.00
00830              20.00     7400.00
00831             156.00     7400.00
00832            -132.00     8000.00
00833             -72.00     7600.00
00834              84.00     8000.00
00835               2.00     8200.00
00836             -10.00     7800.00
00837             -36.00     8400.00
00838              14.00     8400.00
00839              -2.00     8400.00
00840              10.00     8800.00
00841               0.00     8600.00
00842             -76.00     8800.00
00843              58.00     9000.00
00844              30.00     9200.00
00845             -68.00     9200.00
00846              20.00     9400.00
00847               6.00     9600.00
00848             -20.00     9600.00
00849               4.00     9600.00
00850               2.00     9800.00
00851             -12.00     9600.00
00852              -2.00    10000.00
00853               6.00    10200.00
00854             -32.00    10200.00
00855               0.00    10400.00
00856              16.00    10200.00
00857             -28.00    10400.00
00858              -2.00    10400.00
00859               8.00    10600.00
00860             -20.00    10600.00
00861               6.00    10800.00
00862               0.00    10800.00
00863             -28.00    10800.00
00864               0.00    10800.00
00865              24.00    10800.00
00866             -16.00    11000.00
00867             -22.00    11200.00
00868               0.00    11200.00
00869             -10.00    11200.00
00870              -2.00    11200.00
00871               6.00    11200.00
00872             -18.00    11200.00
00873             -10.00    11200.00
00874               6.00    11200.00
00875              -8.00    11400.00
00876             -10.00    11400.00
00877               0.00    11600.00
00878              -4.00    11400.00
00879               0.00    11600.00
00880               2.00    11400.00
00881             -16.00    11600.00
00882             -10.00    11600.00
00883               8.00    11400.00
00884              -2.00    11600.00
00885              -8.00    11600.00
00886              -2.00    11400.00
00887              -6.00    11400.00
00888             -10.00    11400.00
00889               4.00    11400.00
00890              -4.00    11400.00
00891             -10.00    11200.00
00892               4.00    11600.00
00893               2.00    11600.00
00894              -8.00    11200.00
00895              -2.00    11200.00
00896              -8.00    11200.00
00897              -2.00    11200.00
00898               6.00    11200.00
00899               0.00    11200.00
00900              -8.00    11000.00
00901              -2.00    11000.00
00902              -2.00    11000.00
00903              -4.00    11000.00
00904               4.00    10800.00
00905              -2.00    10800.00
00906              -4.00    10800.00
00907               0.00    10600.00
00908               0.00    10400.00
00909              -6.00    10200.00
00910              -2.00    10400.00
00911               4.00    10200.00
00912               0.00    10200.00
00913              -2.00    10000.00
00914              -4.00    10000.00
00915              -6.00     9800.00
00916              -2.00     9600.00
00917               0.00     9600.00
00918              -2.00     9600.00
00919              -2.00     9600.00
00920              -2.00     9400.00
00921              -2.00     9200.00
00922              -2.00     9200.00
00923               0.00     9000.00
00924              -2.00     9000.00
00925               0.00     8800.00
00926               0.00     8600.00
00927              -4.00     8400.00
00928              -4.00     8400.00
00929              -2.00     8200.00
00930              -4.00     8000.00
00931               0.00     8000.00
00932               4.00     8000.00
00933              -4.00     7800.00
00934              -4.00     7600.00
00935               0.00     7600.00
00936               2.00     7400.00
00937               2.00     7400.00
00938               0.00     7200.00
00939               0.00     7000.00
00940               0.00     6800.00
00941              -2.00     6600.00
00942              -4.00     6200.00
00943              -2.00     6200.00
00944               4.00     6200.00
00945               4.00     6000.00
00946               0.00     5800.00
00947               0.00     5600.00
00948              -4.00     5600.00
00949              -2.00     5400.00
00950               4.00     5200.00
00951               0.00     5200.00
00952               0.00     4800.00
00953               0.00     4800.00
00954               4.00     4600.00
00955               0.00     4400.00
00956               2.00     4000.00
00957               0.00     3800.00
00958               4.00     3800.00
00959               2.00     3600.00
00960              -2.00     3400.00
00961              -2.00     3200.00
00962               0.00     3200.00
00963               0.00     2800.00
00964               4.00     2600.00
00965               4.00     2600.00
00966               0.00     2400.00
00967               0.00     2000.00
00968               2.00     2000.00
00969               2.00     1600.00
00970               0.00     1600.00
00971               4.00     1600.00
00972               4.00     1200.00
00973               0.00     1200.00
00974               0.00     1000.00
00975               0.00      800.00
00976               0.00      600.00
00977               2.00      400.00
00978               4.00      200.00
00979               6.00     -200.00
00980               4.00     -400.00
00981              16.00     -400.00
00982              30.00     -800.00
00983               6.00     -800.00
00984             -20.00     -800.00
00985              -4.00    -1000.00
00986              20.00    -1200.00
00987              22.00    -1400.00
00988              44.00    -1600.00
00989             216.00    -1800.00
00990             216.00    -2400.00
00991            -248.00    -2600.00
00992            -248.00    -2600.00
00993             -18.00    -2800.00
00994             252.00    -2800.00
00995             252.00    -2600.00
00996             252.00    -3400.00
00997            -248.00    -3400.00
00998            -248.00    -3200.00
00999             252.00    -4200.00
01000             252.00    -3600.00
01001            -248.00    -3600.00
01002            -188.00    -4600.00
01003             152.00    -4000.00
01004             252.00    -4400.00
01005             112.00    -5200.00
01006            -248.00    -4600.00
01007            -126.00    -5200.00
01008             252.00    -5400.00
01009             190.00    -5200.00
01010            -164.00    -5800.00
01011            -248.00    -5600.00
01012              60.00    -6000.00
01013             252.00    -6000.00
01014              48.00    -6400.00
01015            -248.00    -6400.00
01016            -136.00    -6400.00
01017             236.00    -6800.00
01018             176.00    -7000.00
01019            -132.00    -7000.00
01020            -164.00    -7200.00
01021              -4.00    -7400.00
01022             188.00    -7600.00
01023              70.00    -7600.00
01024            -164.00    -7600.00
01025             -58.00    -8000.00
01026              92.00    -8000.00
01027              70.00    -8200.00
01028             -32.00    -8400.00
01029             -80.00    -8200.00
01030              16.00    -8800.00
01031              86.00    -8800.00
01032              14.00    -8800.00
01033             -80.00    -9000.00
01034             -32.00    -9000.00
01035              68.00    -9200.00
01036              40.00    -9200.00
01037             -24.00    -9400.00
01038             -42.00    -9600.00
01039              -2.00    -9600.00
01040              40.00    -9800.00
01041              10.00    -9800.00
01042             -28.00    -9800.00
01043              -4.00   -10000.00
01044              24.00   -10000.00
01045              12.00   -10400.00
01046             -16.00   -10400.00
01047             -12.00   -10400.00
01048               0.00   -10400.00
01049              20.00   -10600.00
01050              12.00   -10600.00
01051             -14.00   -10600.00
01052             -10.00   -10800.00
01053               6.00   -10800.00
01054               2.00   -10800.00
01055              -4.00   -10800.00
01056               2.00   -11000.00
01057               6.00   -11200.00
01058               6.00   -11000.00
01059              -4.00   -11200.00
01060             -10.00   -11200.00
01061              -2.00   -11200.00
01062              12.00   -11200.00
01063               4.00   -11400.00
01064              -2.00   -11400.00
01065              -2.00   -11400.00
01066              -8.00   -11400.00
01067              -4.00   -11400.00
01068               4.00   -11400.00
01069               0.00   -11400.00
01070               0.00   -11400.00
01071               4.00   -11600.00
01072              -4.00   -11600.00
01073              -8.00   -11400.00
01074               0.00   -11400.00
01075               4.00   -11600.00
01076               4.00   -11400.00
01077               4.00   -11400.00
01078              -2.00   -11400.00
01079              -4.00   -11600.00
01080              -2.00   -11400.00
01081              -2.00   -11400.00
01082               0.00   -11400.00
01083               4.00   -11400.00
01084               4.00   -11200.00
01085              -4.00   -11400.00
01086              -4.00   -11400.00
01087              -4.00   -11400.00
01088               0.00   -11200.00
01089               4.00   -11200.00
01090               6.00   -11000.00
01091              -2.00   -11200.00
01092              -4.00   -11000.00
01093              -4.00   -11200.00
01094              -4.00   -10800.00
01095               4.00   -10800.00
01096               4.00   -10800.00
01097               0.00   -10600.00
01098              -4.00   -10600.00
01099              -4.00   -10600.00
01100              -4.00   -10400.00
01101              -2.00   -10400.00
01102               2.00   -10200.00
01103               4.00   -10400.00
01104               0.00   -10000.00
01105              -4.00   -10200.00
01106              -4.00   -10000.00
01107              -4.00    -9800.00
01108               0.00    -9800.00
01109               0.00    -9800.00
01110               0.00    -9600.00
01111              -4.00    -9600.00
01112              -8.00    -9400.00
01113              -4.00    -9400.00
01114              -4.00    -9200.00
01115              -4.00    -9200.00
01116              -2.00    -9000.00
01117               0.00    -8800.00
01118              -4.00    -8600.00
01119              -8.00    -8600.00
01120              -8.00    -8400.00
01121              -4.00    -8400.00
01122              -2.00    -8200.00
01123              -2.00    -8000.00
01124              -4.00    -7800.00
01125              -8.00    -7800.00
01126              -8.00    -7600.00
01127              -4.00    -7600.00
01128              -4.00    -7400.00
01129              -4.00    -7200.00
01130              -4.00    -7000.00
01131              -4.00    -7000.00
01132              -8.00    -6800.00
01133              -6.00    -6800.00
01134              -4.00    -6400.00
01135              -4.00    -6400.00
01136              -4.00    -6400.00
01137              -2.00    -6000.00
01138              -8.00    -5800.00
01139              -8.00    -5600.00
01140              -4.00    -5400.00
01141              -6.00    -5200.00
01142              -4.00    -5200.00
01143               0.00    -5000.00
01144              -4.00    -4800.00
01145              -6.00    -4800.00
01146              -8.00    -4600.00
01147              -4.00    -4400.00
01148              -4.00    -4200.00
01149              -2.00    -4000.00
01150              -4.00    -3600.00
01151              -4.00    -3600.00
01152              -8.00    -3400.00
01153              -8.00    -3200.00
01154              -4.00    -3000.00
01155              -4.00    -2800.00
01156              -2.00    -2600.00
01157              -2.00    -2600.00
01158              -8.00    -2400.00
01159              -8.00    -2200.00
01160              -8.00    -1800.00
01161              -4.00    -1800.00
01162              -4.00    -1600.00
01163              -4.00    -1200.00
01164              -2.00    -1200.00
01165              -4.00    -1000.00
01166              -6.00     -800.00
01167              -8.00     -600.00
01168              -8.00     -400.00
01169              -4.00     -400.00
01170              -2.00     -200.00
01171              -2.00        0.00
01172               0.00      400.00
01173              22.00      600.00
01174              12.00      800.00
01175             -20.00     1000.00
01176             -24.00     1000.00
01177               8.00     1200.00
01178              16.00     1200.00
01179              48.00     1400.00
01180             252.00     2000.00
01181             148.00     2000.00
01182            -248.00     2200.00
01183            -248.00     2400.00
01184              54.00     2400.00
01185             252.00     2800.00
01186             252.00     3000.00
01187            -248.00     3000.00
01188            -248.00     3200.00
01189             252.00     3200.00
01190             252.00     3400.00
01191            -248.00     3800.00
01192            -248.00     3600.00
01193             192.00     4000.00
01194              70.00     4400.00
01195             252.00     4000.00
01196            -226.00     5000.00
01197            -248.00     5000.00
01198             252.00     4600.00
01199             238.00     5600.00
01200             -96.00     5200.00
01201             -94.00     5200.00
01202            -248.00     6200.00
01203             200.00     5600.00
01204             252.00     5600.00
01205            -162.00     6400.00
01206            -248.00     6000.00
01207             -18.00     6400.00
01208             252.00     6800.00
01209             -10.00     6600.00
01210            -200.00     7200.00
01211              28.00     7200.00
01212             -50.00     7200.00
01213             112.00     7400.00
01214              64.00     7600.00
01215            -176.00     7800.00
01216              22.00     7600.00
01217              60.00     8200.00
01218             -10.00     8000.00
01219             -24.00     7800.00
01220             -24.00     8600.00
01221              22.00     8400.00
01222             -10.00     8800.00
01223              24.00     8800.00
01224             -44.00     8600.00
01225             -42.00     9200.00
01226              86.00     9000.00
01227             -28.00     9200.00
01228             -44.00     9200.00
01229              32.00     9400.00
01230             -14.00     9600.00
01231             -10.00     9600.00
01232               6.00    10000.00
01233              -8.00     9600.00
01234             -10.00     9800.00
01235               8.00    10000.00
01236              -8.00    10000.00
01237             -26.00    10200.00
01238              22.00    10200.00
01239              -4.00    10200.00
01240             -26.00    10400.00
01241              14.00    10400.00
01242              -4.00    10800.00
01243             -12.00    10400.00
01244              12.00    10800.00
01245             -16.00    10800.00
01246             -24.00    11000.00
01247              20.00    11000.00
01248              14.00    11000.00
01249             -26.00    11000.00
01250             -10.00    11200.00
01251               0.00    11000.00
01252             -10.00    11200.00
01253               6.00    11200.00
01254              -2.00    11200.00
01255             -18.00    11200.00
01256              -2.00    11200.00
01257               0.00    11400.00
01258             -12.00    11400.00
01259              -4.00    11400.00
01260               0.00    11400.00
01261              -4.00    11400.00
01262               4.00    11400.00
01263              -2.00    11600.00
01264             -20.00    11400.00
01265              -4.00    11400.00
01266               8.00    11600.00
01267              -8.00    11600.00
01268              -4.00    11200.00
01269               0.00    11600.00
01270             -10.00    11600.00
01271              -4.00    11400.00
01272               4.00    11600.00
01273              -8.00    11200.00
01274              -4.00    11400.00
01275               6.00    11400.00
01276              -4.00    11200.00
01277              -8.00    11400.00
01278              -4.00    11200.00
01279              -4.00    11200.00
01280               4.00    11200.00
01281               4.00    11200.00
01282              -4.00    11200.00
01283              -4.00    11000.00
01284              -2.00    11000.00
01285              -4.00    10800.00
01286              -2.00    10800.00
01287               4.00    10800.00
01288              -4.00    10600.00
01289              -4.00    10400.00
01290               4.00    10600.00
01291              -2.00    10400.00
01292              -4.00    10400.00
01293               0.00    10200.00
01294               4.00    10200.00
01295               0.00    10200.00
01296               0.00    10000.00
01297              -6.00    10000.00
01298               0.00    10000.00
01299               0.00     9600.00
01300               0.00     9800.00
01301               0.00     9600.00
01302               0.00     9600.00
01303              -4.00     9400.00
01304              -4.00     9200.00
01305               0.00     9200.00
01306               0.00     9200.00
01307              -4.00     8800.00
01308               2.00     8800.00
01309               0.00     8800.00
01310              -4.00     8600.00
01311              -2.00     8400.00
01312               0.00     8400.00
01313              -4.00     8200.00
01314               4.00     8000.00
01315               0.00     8000.00
01316              -4.00     7600.00
01317              -4.00     7600.00
01318              -4.00     7600.00
01319               2.00     7200.00
01320               2.00     7200.00
01321              -4.00     7000.00
01322               4.00     6800.00
01323               0.00     6800.00
01324              -4.00     6600.00
01325              -4.00     6400.00
01326               0.00     6400.00
01327               0.00     6200.00
01328               0.00     6000.00
01329              -4.00     5600.00
01330              -2.00     5600.00
01331              -4.00     5400.00
01332               0.00     5400.00
01333               4.00     5200.00
01334               0.00     5200.00
01335              -2.00     4800.00
01336               0.00     4800.00
01337               0.00     4600.00
01338              -2.00     4400.00
01339              -2.00     4000.00
01340               4.00     3800.00
01341               0.00     3600.00
01342               0.00     3600.00
01343              -2.00     3200.00
01344              -2.00     3200.00
01345               0.00     3000.00
01346               4.00     2800.00
01347               4.00     2600.00
01348               4.00     2400.00
01349               0.00     2400.00
01350               0.00     2000.00
01351               0.00     2000.00
01352               2.00     1800.00
01353               0.00     1600.00
01354               4.00     1400.00
01355               6.00     1200.00
01356               4.00     1000.00
01357               0.00      800.00
01358               4.00      800.00
01359               0.00      600.00
01360               2.00      200.00
01361               6.00        0.00
01362               6.00     -200.00
01363               6.00     -400.00
01364              22.00     -400.00
01365              26.00     -800.00
01366              -8.00     -800.00
01367             -18.00    -1000.00
01368               8.00    -1200.00
01369              28.00    -1200.00
01370              22.00    -1600.00
01371              92.00    -1600.00
01372             252.00    -2000.00
01373              46.00    -2600.00
01374            -248.00    -2600.00
01375            -248.00    -2800.00
01376             166.00    -3000.00
01377             252.00    -2800.00
01378             252.00    -2800.00
01379             -38.00    -3600.00
01380            -248.00    -3200.00
01381             140.00    -3400.00
01382             252.00    -4200.00
01383            -194.00    -3400.00
01384            -248.00    -4200.00
01385              -6.00    -4400.00
01386             216.00    -4000.00
01387             252.00    -5000.00
01388            -164.00    -4800.00
01389            -248.00    -4600.00
01390             132.00    -5600.00
01391             252.00    -5200.00
01392              44.00    -5400.00
01393            -248.00    -5800.00
01394            -214.00    -5600.00
01395             228.00    -6000.00
01396             252.00    -6200.00
01397            -122.00    -6200.00
01398            -248.00    -6600.00
01399              20.00    -6600.00
01400             252.00    -6800.00
01401              46.00    -6800.00
01402            -180.00    -7200.00
01403            -122.00    -7400.00
01404              84.00    -7400.00
01405             192.00    -7600.00
01406             -40.00    -7600.00
01407            -164.00    -7800.00
01408              16.00    -8000.00
01409             100.00    -8000.00
01410              38.00    -8400.00
01411             -68.00    -8200.00
01412             -58.00    -8400.00
01413              56.00    -8800.00
01414              70.00    -8800.00
01415             -28.00    -9000.00
01416             -80.00    -8800.00
01417              14.00    -9200.00
01418              70.00    -9400.00
01419              14.00    -9200.00
01420             -34.00    -9600.00
01421             -32.00    -9600.00
01422              20.00    -9600.00
01423              40.00    -9800.00
01424             -10.00    -9800.00
01425             -26.00   -10000.00
01426               8.00   -10000.00
01427              26.00   -10000.00
01428               0.00   -10200.00
01429             -16.00   -10400.00
01430              -8.00   -10400.00
01431              10.00   -10400.00
01432              20.00   -10400.00
01433               0.00   -10600.00
01434             -16.00   -10800.00
01435               0.00   -10800.00
01436               8.00   -10800.00
01437               0.00   -10800.00
01438              -2.00   -10800.00
01439               2.00   -11000.00
01440               4.00   -11200.00
01441               0.00   -11000.00
01442              -8.00   -11200.00
01443              -8.00   -11200.00
01444               6.00   -11400.00
01445              10.00   -11200.00
01446               2.00   -11200.00
01447              -2.00   -11400.00
01448              -4.00   -11400.00
01449              -6.00   -11600.00
01450               2.00   -11400.00
01451               4.00   -11400.00
01452               0.00   -11400.00
01453               4.00   -11600.00
01454              -2.00   -11600.00
01455              -8.00   -11400.00
01456              -4.00   -11600.00
01457               4.00   -11600.00
01458               0.00   -11600.00
01459               4.00   -11400.00
01460               0.00   -11600.00
01461              -4.00   -11400.00
01462              -4.00   -11600.00
01463               0.00   -11400.00
01464              -2.00   -11400.00
01465               4.00   -11400.00
01466               6.00   -11400.00
01467               0.00   -11400.00
01468              -4.00   -11200.00
01469              -4.00   -11200.00
01470              -4.00   -11200.00
01471               2.00   -11200.00
01472               4.00   -11200.00
01473               0.00   -11000.00
01474              -4.00   -11200.00
01475              -4.00   -11000.00
01476              -2.00   -10800.00
01477              -2.00   -10800.00
01478               4.00   -10800.00
01479               4.00   -10800.00
01480               0.00   -10600.00
01481              -4.00   -10600.00
01482              -4.00   -10600.00
01483              -4.00   -10400.00
01484              -2.00   -10400.00
01485               4.00   -10200.00
01486               0.00   -10200.00
01487               0.00   -10000.00
01488              -4.00   -10000.00
01489              -4.00   -10000.00
01490              -2.00    -9800.00
01491               0.00    -9600.00
01492               0.00    -9600.00
01493               0.00    -9600.00
01494              -4.00    -9400.00
01495              -8.00    -9400.00
01496              -4.00    -9200.00
01497              -2.00    -9000.00
01498              -2.00    -9000.00
01499               0.00    -9000.00
01500              -2.00    -8800.00
01501              -4.00    -8800.00
01502              -6.00    -8400.00
01503              -4.00    -8400.00
01504              -4.00    -8200.00
01505              -4.00    -8200.00
01506              -2.00    -8000.00
01507              -4.00    -7800.00
01508              -8.00    -7800.00
01509             -10.00    -7600.00
01510              -8.00    -7400.00
01511              -4.00    -7400.00
01512              -2.00    -7000.00
01513              -4.00    -7000.00
01514              -4.00    -6800.00
01515             -10.00    -6800.00
01516              -8.00    -6600.00
01517              -4.00    -6400.00
01518              -2.00    -6400.00
01519              -4.00    -6000.00
01520              -4.00    -5800.00
01521              -8.00    -5800.00
01522              -8.00    -5400.00
01523              -8.00    -5400.00
01524              -4.00    -5200.00
01525              -4.00    -5000.00
01526              -4.00    -4800.00
01527              -4.00    -4800.00
01528             -10.00    -4600.00
01529             -10.00    -4400.00
01530              -8.00    -4400.00
01531              -4.00    -4000.00
01532              -4.00    -3800.00
01533              -4.00    -3600.00
01534              -8.00    -3400.00
01535              -8.00    -3200.00
01536              -6.00    -3200.00
01537              -4.00    -3200.00
01538              -4.00    -2800.00
01539              -4.00    -2600.00
01540              -8.00    -2400.00
01541              -8.00    -2400.00
01542              -6.00    -2000.00
01543              -8.00    -2000.00
01544              -4.00    -1600.00
01545              -4.00    -1600.00
01546              -4.00    -1200.00
01547              -4.00    -1000.00
01548              -8.00    -1000.00
01549              -6.00     -800.00
01550              -8.00     -400.00
01551              -4.00     -400.00
01552              -2.00     -200.00
01553              -2.00        0.00
01554               0.00        0.00
01555               8.00      400.00
01556              24.00      400.00
01557               0.00      600.00
01558             -26.00     1000.00
01559             -10.00     1200.00
01560              16.00     1200.00
01561              20.00     1400.00
01562             116.00     1600.00
01563             252.00     2000.00
01564             -90.00     2200.00
01565            -248.00     2200.00
01566            -248.00     2400.00
01567             200.00     2400.00
01568             252.00     2800.00
01569             252.00     3000.00
01570            -248.00     2800.00
01571            -248.00     3200.00
01572             252.00     3400.00
01573             252.00     3800.00
01574            -248.00     3800.00
01575             -68.00     3800.00
01576             136.00     4400.00
01577             204.00     4200.00
01578             252.00     4400.00
01579            -248.00     5200.00
01580            -212.00     4600.00
01581             252.00     4800.00
01582              20.00     5600.00
01583             -60.00     5200.00
01584            -194.00     5600.00
01585            -164.00     6200.00
01586             252.00     5600.00
01587             132.00     6200.00
01588            -248.00     6600.00
01589            -212.00     5800.00
01590             144.00     6800.00
01591             252.00     6600.00
01592            -170.00     6800.00
01593            -104.00     7200.00
01594              16.00     7000.00
01595             -24.00     7400.00
01596             166.00     7400.00
01597             -70.00     7800.00
01598            -130.00     7800.00
01599              78.00     7800.00
01600              22.00     8400.00
01601              -4.00     7800.00
01602             -36.00     8400.00
01603              -4.00     8600.00
01604              12.00     8400.00
01605              -2.00     8800.00
01606              22.00     8800.00
01607             -78.00     8800.00
01608              20.00     9000.00
01609              64.00     9200.00
01610             -66.00     9200.00
01611               0.00     9400.00
01612              22.00     9600.00
01613             -26.00     9600.00
01614               0.00     9600.00
01615               4.00    10000.00
01616             -10.00     9800.00
01617              -4.00    10000.00
01618              12.00    10200.00
01619             -20.00    10200.00
01620              -8.00    10400.00
01621              22.00    10400.00
01622             -20.00    10400.00
01623             -10.00    10400.00
01624              14.00    10600.00
01625             -16.00    10800.00
01626              -4.00    10800.00
01627               8.00    11000.00
01628             -26.00    10800.00
01629             -10.00    11000.00
01630              28.00    11000.00
01631              -4.00    11000.00
01632             -26.00    11000.00
01633               2.00    11000.00
01634              -4.00    11200.00
01635              -6.00    11200.00
01636               8.00    11000.00
01637             -12.00    11200.00
01638             -14.00    11200.00
01639               6.00    11400.00
01640              -4.00    11200.00
01641             -14.00    11600.00
01642              -4.00    11600.00
01643              -4.00    11600.00
01644              -4.00    11400.00
01645               4.00    11600.00
01646             -12.00    11600.00
01647             -18.00    11400.00
01648               6.00    11600.00
01649               4.00    11600.00
01650             -10.00    11600.00
01651               0.00    11400.00
01652              -4.00    11600.00
01653             -10.00    11200.00
01654               0.00    11600.00
01655               0.00    11400.00
01656             -10.00    11200.00
01657              -2.00    11200.00
01658               2.00    11200.00
01659              -8.00    11200.00
01660              -4.00    11200.00
01661              -8.00    11200.00
01662              -4.00    11200.00
01663               4.00    11200.00
01664               0.00    11000.00
01665              -8.00    11000.00
01666              -4.00    11000.00
01667              -2.00    11000.00
01668              -4.00    10800.00
01669               0.00    10800.00
01670               0.00    10800.00
01671              -8.00    10400.00
01672              -4.00    10800.00
01673               0.00    10400.00
01674              -4.00    10400.00
01675              -4.00    10200.00
01676              -4.00    10200.00
01677              -2.00    10200.00
01678               2.00    10000.00
01679               0.00    10000.00
01680              -2.00    10000.00
01681              -8.00     9800.00
01682              -8.00     9800.00
01683               4.00     9600.00
01684               6.00     9600.00
01685              -4.00     9400.00
01686              -4.00     9200.00
01687              -6.00     9200.00
01688              -2.00     9000.00
01689               4.00     9000.00
01690               6.00     8800.00
01691              -2.00     8800.00
01692              -6.00     8600.00
01693              -2.00     8400.00
01694               0.00     8400.00
01695               2.00     8400.00
01696               4.00     8000.00
01697              -2.00     8000.00
01698              -4.00     7800.00
01699              -4.00     7800.00
01700              -4.00     7600.00
01701              -2.00     7600.00
01702               0.00     7200.00
01703              -2.00     7000.00
01704              -4.00     7000.00
01705               6.00     6800.00
01706              -2.00     6800.00
01707              -4.00     6400.00
01708              -4.00     6400.00
01709               0.00     6400.00
01710               0.00     6000.00
01711               0.00     5800.00
01712              -4.00     5600.00
01713              -4.00     5600.00
01714              -2.00     5400.00
01715              -2.00     5200.00
01716               0.00     5200.00
01717              -2.00     4800.00
01718              -4.00     4600.00
01719               0.00     4600.00
01720              -2.00     4400.00
01721              -2.00     4000.00
01722              -2.00     4000.00
01723               2.00     3800.00
01724               0.00     3600.00
01725              -2.00     3600.00
01726               0.00     3200.00
01727              -2.00     3200.00
01728               2.00     2800.00
01729               0.00     2800.00
01730               0.00     2600.00
01731               4.00     2400.00
01732              -2.00     2200.00
01733              -2.00     2000.00
01734               0.00     1800.00
01735              -2.00     1600.00
01736               0.00     1400.00
01737               0.00     1400.00
01738               2.00     1200.00
01739               0.00      800.00
01740              -2.00      800.00
01741              -2.00      600.00
01742               0.00      200.00
01743               4.00        0.00
01744               6.00        0.00
01745               4.00     -200.00
01746              10.00     -400.00
01747              30.00     -400.00
01748              16.00     -800.00
01749             -18.00     -800.00
01750             -10.00    -1000.00
01751              16.00    -1200.00
01752              26.00    -1200.00
01753              30.00    -1400.00
01754             164.00    -1600.00
01755             252.00    -2200.00
01756            -182.00    -2600.00
01757            -248.00    -2600.00
01758            -162.00    -2800.00
01759             252.00    -2800.00
01760             252.00    -2400.00
01761             252.00    -3200.00
01762            -248.00    -3600.00
01763            -248.00    -2800.00
01764             252.00    -4000.00
01765             252.00    -4000.00
01766            -248.00    -3600.00
01767            -248.00    -4400.00
01768             106.00    -4400.00
01769             252.00    -4200.00
01770             246.00    -5200.00
01771            -248.00    -4800.00
01772            -248.00    -5000.00
01773             252.00    -5400.00
01774             252.00    -5200.00
01775             -90.00    -5800.00
01776            -248.00    -5600.00
01777             -58.00    -5800.00
01778             252.00    -6200.00
01779             150.00    -6000.00
01780            -244.00    -6600.00
01781            -216.00    -6600.00
01782             164.00    -6600.00
01783             238.00    -7000.00
01784             -74.00    -7000.00
01785            -180.00    -7200.00
01786             -56.00    -7400.00
01787             158.00    -7400.00
01788             132.00    -7800.00
01789            -136.00    -7800.00
01790            -106.00    -8000.00
01791              72.00    -8000.00
01792              86.00    -8200.00
01793              -8.00    -8400.00
01794             -84.00    -8400.00
01795             -12.00    -8600.00
01796              80.00    -8800.00
01797              38.00    -8600.00
01798             -64.00    -9000.00
01799             -56.00    -9000.00
01800              54.00    -9200.00
01801              60.00    -9200.00
01802             -12.00    -9200.00
01803             -40.00    -9600.00
01804             -12.00    -9600.00
01805              38.00    -9800.00
01806              26.00    -9800.00
01807             -24.00    -9800.00
01808             -18.00   -10000.00
01809              22.00   -10000.00
01810              16.00   -10000.00
01811              -8.00   -10200.00
01812             -16.00   -10400.00
01813              -2.00   -10400.00
01814              20.00   -10400.00
01815              16.00   -10600.00
01816              -8.00   -10800.00
01817             -12.00   -10800.00
01818               6.00   -10800.00
01819               6.00   -10800.00
01820              -2.00   -11000.00
01821               0.00   -11000.00
01822               6.00   -11000.00
01823               6.00   -11200.00
01824              -2.00   -11000.00
01825             -10.00   -11200.00
01826              -2.00   -11200.00
01827              12.00   -11200.00
01828               8.00   -11400.00
01829              -2.00   -11200.00
01830              -4.00   -11400.00
01831              -4.00   -11400.00
01832              -4.00   -11400.00
01833               4.00   -11400.00
01834               2.00   -11400.00
01835               0.00   -11600.00
01836               4.00   -11400.00
01837              -4.00   -11600.00
01838              -8.00   -11600.00
01839              -2.00   -11400.00
01840               4.00   -11400.00
01841               4.00   -11600.00
01842               2.00   -11600.00
01843              -2.00   -11600.00
01844              -8.00   -11600.00
01845              -4.00   -11600.00
01846               0.00   -11400.00
01847               0.00   -11400.00
01848               4.00   -11400.00
01849              -2.00   -11400.00
01850              -4.00   -11400.00
01851              -6.00   -11200.00
01852              -4.00   -11400.00
01853              -2.00   -11200.00
01854               0.00   -11200.00
01855               0.00   -11200.00
01856              -4.00   -11000.00
01857              -2.00   -11200.00
01858              -4.00   -10800.00
01859              -4.00   -10800.00
01860               0.00   -11000.00
01861               4.00   -10800.00
01862               0.00   -10800.00
01863              -4.00   -10800.00
01864              -8.00   -10600.00
01865              -4.00   -10600.00
01866              -2.00   -10400.00
01867               4.00   -10200.00
01868               0.00   -10200.00
01869              -2.00   -10200.00
01870              -8.00   -10400.00
01871              -8.00   -10000.00
01872              -4.00    -9800.00
01873              -2.00    -9800.00
01874              -2.00    -9800.00
01875              -2.00    -9400.00
01876              -2.00    -9600.00
01877              -4.00    -9600.00
01878              -4.00    -9200.00
01879              -4.00    -9200.00
01880              -4.00    -9000.00
01881              -2.00    -9000.00
01882              -2.00    -8800.00
01883              -2.00    -8800.00
01884              -4.00    -8600.00
01885              -8.00    -8400.00
01886              -4.00    -8200.00
01887               0.00    -8200.00
01888              -2.00    -8000.00
01889               0.00    -8000.00
01890              -4.00    -8000.00
01891              -8.00    -7600.00
01892              -4.00    -7600.00
01893              -4.00    -7400.00
01894              -2.00    -7200.00
01895              -4.00    -7200.00
01896              -4.00    -7000.00
01897              -8.00    -6800.00
01898              -8.00    -6800.00
01899              -8.00    -6600.00
01900              -4.00    -6400.00
01901              -4.00    -6200.00
01902              -2.00    -6000.00
01903              -4.00    -5800.00
01904              -8.00    -5600.00
01905             -12.00    -5400.00
01906             -12.00    -5400.00
01907              -8.00    -5200.00
01908              -4.00    -5000.00
01909              -2.00    -5000.00
01910              -2.00    -4800.00
01911               0.00    -4400.00
01912              -8.00    -4400.00
01913             -12.00    -4200.00
01914             -16.00    -4000.00
01915             -10.00    -3800.00
01916               0.00    -3600.00
01917              -2.00    -3600.00
01918             -10.00    -3200.00
01919             -12.00    -3200.00
01920             -10.00    -3000.00
01921              -2.00    -2800.00
01922               4.00    -2600.00
01923              -8.00    -2400.00
01924             -14.00    -2400.00
01925              -8.00    -2000.00
01926              -6.00    -1800.00
01927              -2.00    -1600.00
01928               0.00    -1400.00
01929             -10.00    -1200.00
01930             -10.00    -1000.00
01931              -4.00     -800.00
01932              -8.00     -800.00
01933              -8.00     -800.00
01934              -4.00     -400.00
01935              -4.00     -200.00
01936               0.00        0.00
01937               0.00      200.00
01938              20.00      400.00
01939              20.00      600.00
01940             -10.00      800.00
01941             -26.00     1000.00
01942              -2.00     1200.00
01943              20.00     1200.00
01944              30.00     1600.00
01945             214.00     1800.00
01946             252.00     2000.00
01947            -248.00     2200.00
01948            -248.00     2400.00
01949             -68.00     2400.00
01950             252.00     2400.00
01951             252.00     3000.00
01952             142.00     3000.00
01953            -248.00     3000.00
01954             -12.00     3600.00
01955             252.00     3600.00
01956            -196.00     3800.00
01957            -248.00     3800.00
01958             156.00     4000.00
01959              60.00     4400.00
01960             252.00     4000.00
01961              38.00     4600.00
01962            -248.00     5000.00
01963             186.00     4600.00
01964             252.00     5400.00
01965             -90.00     5400.00
01966             -58.00     5000.00
01967            -248.00     6000.00
01968              54.00     6000.00
01969             252.00     5400.00
01970             -64.00     6400.00
01971            -248.00     6000.00
01972            -108.00     6200.00
01973             252.00     7000.00
01974             110.00     6400.00
01975            -228.00     7000.00
01976              -4.00     7200.00
01977             -28.00     7400.00
01978              56.00     7200.00
01979             128.00     7400.00
01980            -162.00     8000.00
01981             -34.00     7600.00
01982              72.00     8000.00
01983              -6.00     8200.00
01984             -12.00     7800.00
01985             -36.00     8600.00
01986              22.00     8400.00
01987             -10.00     8600.00
01988              20.00     9000.00
01989             -16.00     8600.00
01990             -74.00     8800.00
01991              76.00     9000.00
01992               6.00     9200.00
01993             -72.00     9200.00
01994              36.00     9200.00
01995              -6.00     9600.00
01996             -24.00     9600.00
01997              12.00     9600.00
01998              -2.00     9800.00
01999             -16.00    10000.00
02000               8.00    10200.00
02001               4.00    10000.00
02002             -40.00    10200.00
02003              22.00    10400.00
02004              14.00    10400.00
02005             -40.00    10200.00
02006              12.00    10400.00
02007               8.00    10800.00
02008             -20.00    10600.00
02009              10.00    10800.00
02010              -2.00    11000.00
02011             -26.00    10800.00
02012               6.00    10800.00
02013              20.00    11000.00
02014             -20.00    11000.00
02015             -10.00    11000.00
02016               4.00    11200.00
02017             -10.00    11200.00
02018               4.00    11200.00
02019               6.00    11200.00
02020             -16.00    11200.00
02021              -4.00    11200.00
02022               8.00    11400.00
02023             -12.00    11400.00
02024             -10.00    11200.00
02025               4.00    11400.00
02026              -4.00    11600.00
02027               0.00    11400.00
02028               0.00    11400.00
02029             -20.00    11400.00
02030              -8.00    11600.00
02031              12.00    11600.00
02032              -4.00    11400.00
02033             -10.00    11400.00
02034              -2.00    11400.00
02035             -10.00    11400.00
02036              -8.00    11400.00
02037               8.00    11600.00
02038             -10.00    11200.00
02039             -12.00    11400.00
02040               4.00    11400.00
02041              -4.00    11200.00
02042              -8.00    11200.00
02043              -8.00    11200.00
02044              -8.00    11200.00
02045              -4.00    11000.00
02046               8.00    11200.00
02047              -4.00    11000.00
02048             -10.00    11000.00
02049              -2.00    10800.00
02050              -4.00    11000.00
02051              -4.00    10800.00
02052               2.00    10800.00
02053              -4.00    10600.00
02054              -4.00    10600.00
02055              -2.00    10600.00
02056              -2.00    10400.00
02057              -8.00    10200.00
02058              -2.00    10400.00
02059               4.00    10200.00
02060              -2.00    10000.00
02061              -4.00    10000.00
02062              -4.00    10000.00
02063              -4.00    10000.00
02064              -2.00     9800.00
02065               2.00     9600.00
02066              -2.00     9400.00
02067              -2.00     9400.00
02068              -2.00     9400.00
02069              -4.00     9200.00
02070              -2.00     9200.00
02071              -2.00     8800.00
02072              -2.00     8800.00
02073               4.00     8800.00
02074              -2.00     8800.00
02075              -4.00     8400.00
02076              -4.00     8400.00
02077               0.00     8400.00
02078               0.00     8200.00
02079               2.00     8000.00
02080               4.00     7800.00
02081              -4.00     7800.00
02082              -2.00     7600.00
02083               0.00     7600.00
02084              -2.00     7200.00
02085              -2.00     7200.00
02086               0.00     7000.00
02087               4.00     7000.00
02088              -2.00     6800.00
02089              -4.00     6600.00
02090              -4.00     6400.00
02091              -2.00     6200.00
02092               4.00     6200.00
02093               0.00     6000.00
02094              -4.00     6000.00
02095              -4.00     5600.00
02096              -2.00     5600.00
02097               0.00     5200.00
02098               2.00     5200.00
02099              -2.00     4800.00
02100              -4.00     4600.00
02101              -2.00     4600.00
02102               0.00     4400.00
02103              -4.00     4400.00
02104              -4.00     4000.00
02105               0.00     3800.00
02106               4.00     3600.00
02107               4.00     3600.00
02108              -4.00     3200.00
02109              -8.00     3200.00
02110              -2.00     3000.00
02111               6.00     2800.00
02112               4.00     2600.00
02113               0.00     2400.00
02114              -4.00     2200.00
02115              -2.00     2000.00
02116               4.00     2000.00
02117               0.00     1800.00
02118              -4.00     1600.00
02119               0.00     1400.00
02120               6.00     1200.00
02121               4.00     1200.00
02122               0.00      800.00
02123              -2.00      800.00
02124              -2.00      600.00
02125               0.00      200.00
02126              -2.00        0.00
02127               0.00     -200.00
02128               6.00     -400.00
02129              22.00     -400.00
02130              38.00     -600.00
02131               6.00     -800.00
02132             -14.00    -1000.00
02133               6.00    -1200.00
02134              24.00    -1200.00
02135              18.00    -1400.00
02136              48.00    -1600.00
02137             236.00    -1800.00
02138             162.00    -2400.00
02139            -248.00    -2600.00
02140            -248.00    -2600.00
02141              72.00    -2800.00
02142             252.00    -2600.00
02143             252.00    -2600.00
02144             196.00    -3600.00
02145            -248.00    -3200.00
02146            -240.00    -3200.00
02147             252.00    -4200.00
02148             142.00    -3600.00
02149            -248.00    -4000.00
02150            -106.00    -4800.00
02151             178.00    -4000.00
02152             252.00    -4800.00
02153              12.00    -5000.00
02154            -248.00    -4600.00
02155             -18.00    -5200.00
02156             252.00    -5200.00
02157             126.00    -5200.00
02158            -202.00    -5800.00
02159            -248.00    -5600.00
02160             128.00    -6000.00
02161             252.00    -6400.00
02162             -26.00    -6200.00
02163            -248.00    -6600.00
02164             -76.00    -6600.00
02165             252.00    -6800.00
02166             132.00    -7000.00
02167            -154.00    -7000.00
02168            -154.00    -7200.00
02169              22.00    -7400.00
02170             198.00    -7600.00
02171              34.00    -7600.00
02172            -170.00    -7600.00
02173             -26.00    -8200.00
02174             100.00    -8000.00
02175              60.00    -8200.00
02176             -48.00    -8400.00
02177             -80.00    -8400.00
02178              32.00    -8800.00
02179              84.00    -8600.00
02180              -4.00    -8800.00
02181             -82.00    -9000.00
02182             -12.00    -9000.00
02183              70.00    -9200.00
02184              30.00    -9400.00
02185             -32.00    -9600.00
02186             -36.00    -9600.00
02187               6.00    -9600.00
02188              44.00    -9800.00
02189               4.00    -9600.00
02190             -30.00   -10000.00
02191               0.00   -10000.00
02192              28.00   -10000.00
02193               6.00   -10200.00
02194             -18.00   -10400.00
02195             -12.00   -10400.00
02196               4.00   -10400.00
02197              22.00   -10600.00
02198              10.00   -10600.00
02199             -12.00   -10600.00
02200              -4.00   -10800.00
02201               8.00   -10800.00
02202               0.00   -10800.00
02203              -4.00   -10800.00
02204               4.00   -11000.00
02205               8.00   -11200.00
02206               6.00   -11200.00
02207              -4.00   -11000.00
02208             -10.00   -11200.00
02209               4.00   -11200.00
02210              12.00   -11200.00
02211               4.00   -11400.00
02212               0.00   -11400.00
02213              -2.00   -11400.00
02214              -6.00   -11400.00
02215               0.00   -11400.00
02216               6.00   -11400.00
02217               4.00   -11400.00
02218               0.00   -11400.00
02219               4.00   -11600.00
02220              -4.00   -11600.00
02221              -4.00   -11600.00
02222               0.00   -11600.00
02223               4.00   -11600.00
02224               0.00   -11400.00
02225               0.00   -11400.00
02226              -4.00   -11600.00
02227              -4.00   -11600.00
02228              -2.00   -11600.00
02229               0.00   -11400.00
02230               4.00   -11400.00
02231               4.00   -11400.00
02232               0.00   -11400.00
02233              -8.00   -11200.00
02234              -4.00   -11400.00
02235              -4.00   -11200.00
02236              -2.00   -11200.00
02237               4.00   -11200.00
02238               0.00   -11200.00
02239              -4.00   -11000.00
02240              -6.00   -11000.00
02241             -10.00   -11200.00
02242              -2.00   -10800.00
02243               0.00   -10800.00
02244               0.00   -10800.00
02245               0.00   -10800.00
02246              -4.00   -10600.00
02247              -6.00   -10600.00
02248              -4.00   -10400.00
02249              -2.00   -10400.00
02250               0.00   -10400.00
02251               0.00   -10400.00
02252              -2.00   -10200.00
02253              -6.00   -10000.00
02254              -8.00   -10000.00
02255              -6.00    -9800.00
02256              -4.00    -9600.00
02257               0.00    -9800.00
02258               0.00    -9600.00
02259              -2.00    -9600.00
02260              -4.00    -9400.00
02261              -4.00    -9200.00
02262              -4.00    -9000.00
02263               0.00    -9000.00
02264              -2.00    -9000.00
02265               0.00    -8800.00
02266              -4.00    -8800.00
02267              -8.00    -8800.00
02268              -4.00    -8400.00
02269              -4.00    -8200.00
02270               0.00    -8200.00
02271              -2.00    -8000.00
02272              -2.00    -8000.00
02273              -8.00    -7600.00
02274              -8.00    -7600.00
02275              -4.00    -7400.00
02276              -2.00    -7400.00
02277              -2.00    -7200.00
02278              -2.00    -7000.00
02279              -4.00    -6800.00
02280              -8.00    -6800.00
02281              -8.00    -6600.00
02282              -8.00    -6400.00
02283              -4.00    -6400.00
02284              -2.00    -6000.00
02285              -4.00    -6000.00
02286              -4.00    -5600.00
02287              -8.00    -5600.00
02288              -6.00    -5400.00
02289              -6.00    -5200.00
02290              -2.00    -5200.00
02291              -4.00    -5000.00
02292              -4.00    -4800.00
02293              -8.00    -4800.00
02294             -10.00    -4400.00
02295              -8.00    -4200.00
02296              -4.00    -4000.00
02297              -4.00    -4000.00
02298              -4.00    -3800.00
02299              -8.00    -3600.00
02300             -10.00    -3400.00
02301              -8.00    -3200.00
02302              -8.00    -3000.00
02303              -6.00    -2800.00
02304              -4.00    -2800.00
02305              -4.00    -2400.00
02306              -4.00    -2400.00
02307             -10.00    -2000.00
02308              -8.00    -1800.00
02309              -4.00    -1800.00
02310              -4.00    -1600.00
02311              -4.00    -1400.00
02312              -6.00    -1200.00
02313              -8.00    -1000.00
02314              -8.00     -800.00
02315              -6.00     -600.00
02316              -4.00     -400.00
02317              -4.00     -200.00
02318              -2.00        0.00
02319              -2.00        0.00
02320               4.00      400.00
02321              22.00      400.00
02322               8.00      600.00
02323             -24.00     1000.00
02324             -18.00     1200.00
02325              12.00     1200.00
02326              20.00     1400.00
02327              70.00     1400.00
02328             252.00     2000.00
02329              70.00     2200.00
02330            -248.00     2200.00
02331            -248.00     2400.00
02332             112.00     2400.00
02333             252.00     2800.00
02334             252.00     3000.00
02335            -248.00     2800.00
02336            -248.00     3200.00
02337             252.00     3600.00
02338             252.00     3600.00
02339            -248.00     4000.00
02340            -248.00     3800.00
02341             188.00     4400.00
02342             106.00     4200.00
02343             252.00     4400.00
02344            -248.00     5000.00
02345            -248.00     4800.00
02346             252.00     4800.00
02347             150.00     5600.00
02348             -84.00     5200.00
02349            -124.00     5200.00
02350            -248.00     6200.00
02351             252.00     5600.00
02352             252.00     6000.00
02353            -208.00     6400.00
02354            -248.00     6000.00
02355              40.00     6400.00
02356             252.00     6800.00
02357             -76.00     6400.00
02358            -172.00     7000.00
02359              32.00     7000.00
02360             -50.00     7400.00
02361             142.00     7400.00
02362              14.00     7600.00
02363            -170.00     7800.00
02364              48.00     7600.00
02365              42.00     8000.00
02366             -10.00     8000.00
02367             -28.00     8000.00
02368             -18.00     8600.00
02369              20.00     8200.00
02370             -10.00     8800.00
02371              28.00     8800.00
02372             -62.00     8800.00
02373             -20.00     9200.00
02374              80.00     9000.00
02375             -50.00     9200.00
02376             -28.00     9200.00
02377              30.00     9400.00
02378             -20.00     9600.00
02379              -8.00     9600.00
02380               6.00     9800.00
02381              -8.00    10000.00
02382             -10.00     9800.00
02383              12.00    10200.00
02384             -12.00    10200.00
02385             -22.00    10200.00
02386              22.00    10200.00
02387             -12.00    10400.00
02388             -24.00    10400.00
02389              14.00    10600.00
02390             -10.00    10800.00
02391             -10.00    10800.00
02392              12.00    10800.00
02393             -18.00    11000.00
02394             -20.00    10800.00
02395              22.00    11000.00
02396               8.00    11000.00
02397             -26.00    11200.00
02398              -8.00    11200.00
02399               0.00    11200.00
02400              -8.00    11200.00
02401               6.00    11200.00
02402              -2.00    11200.00
02403             -18.00    11400.00
02404               4.00    11400.00
02405               0.00    11200.00
02406             -12.00    11200.00
02407              -2.00    11200.00
02408               0.00    11400.00
02409              -4.00    11400.00
02410               6.00    11600.00
02411              -4.00    11600.00
02412             -18.00    11600.00
02413               2.00    11600.00
02414               8.00    11600.00
02415              -8.00    11600.00
02416              -4.00    11400.00
02417              -2.00    11600.00
02418             -12.00    11600.00
02419              -2.00    11400.00
02420               0.00    11400.00
02421             -10.00    11200.00
02422              -4.00    11400.00
02423               6.00    11200.00
02424              -6.00    11200.00
02425              -6.00    11200.00
02426              -4.00    11200.00
02427              -4.00    11200.00
02428               4.00    11200.00
02429               4.00    11000.00
02430              -8.00    11000.00
02431              -8.00    11000.00
02432              -2.00    11000.00
02433              -4.00    11000.00
02434              -2.00    10800.00
02435               0.00    10800.00
02436              -4.00    10600.00
02437              -4.00    10600.00
02438              -2.00    10400.00
02439              -6.00    10400.00
02440              -4.00    10400.00
02441               0.00    10200.00
02442               0.00    10200.00
02443              -4.00    10000.00
02444              -2.00    10000.00
02445              -4.00    10000.00
02446              -6.00    10000.00
02447               2.00     9600.00
02448               0.00     9600.00
02449              -2.00     9600.00
02450              -2.00     9400.00
02451              -4.00     9400.00
02452              -4.00     9200.00
02453               0.00     9200.00
02454              -4.00     8800.00
02455              -2.00     8800.00
02456               4.00     8600.00
02457              -2.00     8600.00
02458              -4.00     8400.00
02459              -2.00     8400.00
02460              -2.00     8400.00
02461               0.00     8000.00
02462               2.00     8000.00
02463              -2.00     7800.00
02464              -2.00     7600.00
02465               0.00     7600.00
02466              -2.00     7600.00
02467               0.00     7200.00
02468               0.00     7400.00
02469               0.00     7000.00
02470               2.00     6800.00
02471               0.00     6800.00
02472              -2.00     6400.00
02473              -4.00     6400.00
02474               4.00     6200.00
02475               4.00     6000.00
02476               0.00     6000.00
02477               0.00     5600.00
02478               0.00     5600.00
02479               0.00     5400.00
02480               4.00     5400.00
02481               0.00     5000.00
02482               0.00     4800.00
02483               0.00     4800.00
02484               0.00     4600.00
02485              -2.00     4400.00
02486              -2.00     4200.00
02487              -2.00     4000.00
02488               2.00     3800.00
02489               4.00     3600.00
02490               0.00     3600.00
02491              -2.00     3200.00
02492               0.00     3200.00
02493               0.00     2800.00
02494               0.00     2800.00
02495               4.00     2800.00
02496              -2.00     2200.00
02497               0.00     2400.00
02498              -2.00     2000.00
02499               0.00     2000.00
02500               0.00     1600.00
02501               0.00     1600.00
02502               4.00     1400.00
02503               2.00     1200.00
02504               0.00     1000.00
02505               0.00      800.00
02506               0.00      600.00
02507               0.00      400.00
02508               4.00      200.00
02509               4.00        0.00
02510               6.00     -200.00
02511               8.00     -400.00
02512              28.00     -600.00
02513              22.00     -600.00
02514             -12.00     -800.00
02515             -18.00    -1000.00
02516              12.00    -1200.00
02517              24.00    -1200.00
02518              24.00    -1600.00
02519             116.00    -1600.00
02520             252.00    -2000.00
02521             -32.00    -2600.00
02522            -248.00    -2600.00
02523            -248.00    -2800.00
02524             208.00    -2800.00
02525             252.00    -2600.00
02526             252.00    -3000.00
02527            -200.00    -3600.00
02528            -248.00    -2800.00
02529             252.00    -3800.00
02530             252.00    -4000.00
02531            -248.00    -3400.00
02532            -248.00    -4200.00
02533              44.00    -4400.00
02534             250.00    -4000.00
02535             252.00    -5000.00
02536            -248.00    -4800.00
02537            -248.00    -4800.00
02538             214.00    -5200.00
02539             252.00    -5000.00
02540              -2.00    -5600.00
02541            -248.00    -5600.00
02542            -164.00    -5800.00
02543             252.00    -6000.00
02544             246.00    -6200.00
02545            -174.00    -6400.00
02546            -248.00    -6600.00
02547              80.00    -6600.00
02548             252.00    -6800.00
02549              -2.00    -6800.00
02550            -184.00    -7200.00
02551            -100.00    -7400.00
02552             116.00    -7400.00
02553             172.00    -7600.00
02554             -82.00    -7600.00
02555            -144.00    -8000.00
02556              44.00    -8000.00
02557              96.00    -8000.00
02558              20.00    -8400.00
02559             -76.00    -8400.00
02560             -42.00    -8400.00
02561              68.00    -8800.00
02562              60.00    -8800.00
02563             -48.00    -9000.00
02564             -74.00    -9000.00
02565              30.00    -9200.00
02566              70.00    -9200.00
02567               6.00    -9400.00
02568             -44.00    -9600.00
02569             -32.00    -9600.00
02570              30.00    -9600.00
02571              38.00    -9800.00
02572             -16.00    -9800.00
02573             -26.00    -9800.00
02574               6.00   -10000.00
02575              22.00   -10200.00
02576               4.00   -10400.00
02577             -12.00   -10400.00
02578             -10.00   -10400.00
02579               8.00   -10400.00
02580              16.00   -10600.00
02581               0.00   -10600.00
02582              -8.00   -10800.00
02583               0.00   -10800.00
02584               0.00   -10800.00
02585              -2.00   -10800.00
02586               0.00   -11000.00
02587               6.00   -10800.00
02588               8.00   -10800.00
02589               0.00   -11200.00
02590             -12.00   -11200.00
02591              -6.00   -11200.00
02592               8.00   -11200.00
02593              10.00   -11200.00
02594               4.00   -11400.00
02595               0.00   -11200.00
02596              -8.00   -11400.00
02597              -2.00   -11400.00
02598               6.00   -11400.00
02599               4.00   -11400.00
02600               4.00   -11400.00
02601               4.00   -11400.00
02602              -2.00   -11400.00
02603              -4.00   -11600.00
02604              -2.00   -11400.00
02605               0.00   -11400.00
02606               4.00   -11400.00
02607               4.00   -11400.00
02608               0.00   -11400.00
02609              -4.00   -11400.00
02610              -4.00   -11400.00
02611              -2.00   -11600.00
02612               0.00   -11400.00
02613               0.00   -11400.00
02614               4.00   -11400.00
02615              -4.00   -11400.00
02616              -4.00   -11400.00
02617              -4.00   -11400.00
02618              -2.00   -11400.00
02619               0.00   -11200.00
02620               6.00   -11200.00
02621              -2.00   -11200.00
02622              -4.00   -11200.00
02623              -4.00   -11200.00
02624              -4.00   -11000.00
02625              -2.00   -10800.00
02626               4.00   -10800.00
02627               0.00   -10800.00
02628              -4.00   -10600.00
02629              -4.00   -10600.00
02630              -8.00   -10600.00
02631              -4.00   -10400.00
02632              -2.00   -10400.00
02633               0.00   -10200.00
02634               0.00   -10200.00
02635              -4.00   -10200.00
02636              -8.00   -10000.00
02637              -6.00   -10000.00
02638              -4.00    -9800.00
02639              -2.00    -9600.00
02640               2.00    -9600.00
02641               0.00    -9600.00
02642              -4.00    -9200.00
02643              -6.00    -9200.00
02644              -4.00    -9200.00
02645              -4.00    -9200.00
02646              -2.00    -9000.00
02647              -2.00    -9000.00
02648              -4.00    -8800.00
02649              -4.00    -8600.00
02650              -4.00    -8400.00
02651              -4.00    -8400.00
02652              -2.00    -8200.00
02653               0.00    -8000.00
02654               0.00    -8000.00
02655              -4.00    -7800.00
02656              -4.00    -7800.00
02657              -8.00    -7600.00
02658              -4.00    -7400.00
02659              -2.00    -7200.00
02660              -2.00    -7000.00
02661              -4.00    -7000.00
02662              -4.00    -6800.00
02663              -4.00    -6600.00
02664              -6.00    -6600.00
02665              -2.00    -6200.00
02666              -2.00    -6200.00
02667              -2.00    -6000.00
02668              -2.00    -5800.00
02669              -4.00    -5800.00
02670              -8.00    -5400.00
02671              -4.00    -5200.00
02672              -4.00    -5200.00
02673              -2.00    -5000.00
02674              -4.00    -4800.00
02675              -4.00    -4800.00
02676              -8.00    -4600.00
02677              -8.00    -4400.00
02678              -4.00    -4200.00
02679              -4.00    -4000.00
02680              -2.00    -4000.00
02681              -4.00    -3800.00
02682              -8.00    -3600.00
02683              -8.00    -3200.00
02684              -8.00    -3200.00
02685              -8.00    -3000.00
02686              -4.00    -2800.00
02687              -4.00    -2600.00
02688              -4.00    -2400.00
02689             -10.00    -2400.00
02690             -10.00    -2000.00
02691              -8.00    -1800.00
02692              -4.00    -1800.00
02693              -4.00    -1400.00
02694              -4.00    -1200.00
02695              -4.00    -1200.00
02696              -8.00    -1000.00
02697             -10.00     -800.00
02698              -8.00     -800.00
02699              -4.00     -200.00
02700              -4.00     -200.00
02701               0.00        0.00
02702              -2.00      200.00
02703              12.00      400.00
02704              24.00      600.00
02705              -6.00      800.00
02706             -26.00     1000.00
02707              -4.00     1200.00
02708              20.00     1200.00
02709              22.00     1400.00
02710             150.00     1600.00
02711             252.00     2200.00
02712            -192.00     2200.00
02713            -248.00     2400.00
02714            -216.00     2400.00
02715             246.00     2400.00
02716             252.00     2800.00
02717             252.00     2800.00
02718            -248.00     3000.00
02719            -248.00     3400.00
02720             252.00     3200.00
02721             252.00     3800.00
02722            -248.00     3800.00
02723              36.00     3800.00
02724             104.00     4400.00
02725             252.00     4000.00
02726             252.00     4600.00
02727            -248.00     5200.00
02728             -60.00     4600.00
02729             252.00     5200.00
02730             -36.00     5600.00
02731             -48.00     5200.00
02732            -228.00     5800.00
02733             -92.00     6200.00
02734             252.00     5600.00
02735              58.00     6400.00
02736            -248.00     6400.00
02737            -176.00     6000.00
02738             198.00     6800.00
02739             220.00     6600.00
02740            -206.00     7000.00
02741             -60.00     7200.00
02742               2.00     7000.00
02743              -4.00     7400.00
02744             160.00     7400.00
02745            -112.00     7800.00
02746             -98.00     7800.00
02747              84.00     7800.00
02748               6.00     8400.00
02749             -10.00     7800.00
02750             -36.00     8400.00
02751               8.00     8400.00
02752               4.00     8400.00
02753               4.00     8800.00
02754               6.00     8600.00
02755             -80.00     9000.00
02756              44.00     9000.00
02757              44.00     9200.00
02758             -72.00     9400.00
02759              10.00     9200.00
02760               8.00     9600.00
02761             -24.00     9400.00
02762               0.00     9600.00
02763               0.00    10000.00
02764             -12.00     9600.00
02765              -4.00    10000.00
02766               6.00    10000.00
02767             -28.00    10200.00
02768              -4.00    10200.00
02769              22.00    10200.00
02770             -28.00    10400.00
02771              -4.00    10400.00
02772              12.00    10400.00
02773             -18.00    10800.00
02774               4.00    10800.00
02775               4.00    10800.00
02776             -28.00    10800.00
02777              -4.00    10800.00
02778              24.00    11000.00
02779             -10.00    11000.00
02780             -24.00    11200.00
02781               2.00    11200.00
02782              -4.00    11200.00
02783               0.00    11200.00
02784              10.00    11200.00
02785             -12.00    11400.00
02786             -12.00    11200.00
02787               6.00    11400.00
02788              -4.00    11400.00
02789             -10.00    11200.00
02790               0.00    11400.00
02791              -4.00    11600.00
02792              -2.00    11200.00
02793               6.00    11600.00
02794             -12.00    11200.00
02795             -12.00    11400.00
02796               8.00    11400.00
02797               4.00    11600.00
02798             -10.00    11400.00
02799               0.00    11600.00
02800              -8.00    11600.00
02801             -10.00    11400.00
02802               4.00    11400.00
02803              -2.00    11200.00
02804             -10.00    11400.00
02805               2.00    11200.00
02806               0.00    11400.00
02807              -6.00    11200.00
02808              -4.00    11200.00
02809              -4.00    11200.00
02810              -4.00    11200.00
02811               6.00    11000.00
02812               0.00    11000.00
02813              -8.00    11000.00
02814              -4.00    11000.00
02815              -4.00    10800.00
02816              -4.00    10800.00
02817               0.00    10800.00
02818               0.00    10800.00
02819              -8.00    10600.00
02820              -2.00    10400.00
02821               0.00    10400.00
02822              -4.00    10200.00
02823              -4.00    10200.00
02824               4.00    10200.00
02825              -2.00    10200.00
02826              -4.00    10000.00
02827              -4.00    10000.00
02828              -4.00    10000.00
02829              -4.00     9800.00
02830               2.00     9600.00
02831               0.00     9600.00
02832              -2.00     9400.00
02833              -2.00     9400.00
02834              -4.00     9400.00
02835              -4.00     9200.00
02836               0.00     9000.00
02837              -2.00     8800.00
02838               0.00     8800.00
02839               4.00     8600.00
02840              -4.00     8600.00
02841              -2.00     8400.00
02842               0.00     8400.00
02843              -2.00     8000.00
02844               0.00     8000.00
02845               4.00     8000.00
02846              -2.00     7800.00
02847              -2.00     7600.00
02848              -2.00     7600.00
02849               0.00     7400.00
02850               0.00     7200.00
02851               4.00     7200.00
02852               0.00     7000.00
02853               2.00     6800.00
02854              -2.00     6600.00
02855               0.00     6400.00
02856              -4.00     6400.00
02857               4.00     6200.00
02858               2.00     6000.00
02859               0.00     5800.00
02860              -2.00     5800.00
02861              -4.00     5600.00
02862               0.00     5400.00
02863               4.00     5200.00
02864               4.00     5200.00
02865               0.00     4800.00
02866               0.00     4600.00
02867               4.00     4400.00
02868              -2.00     4200.00
02869              -2.00     4000.00
02870               4.00     3800.00
02871               4.00     3800.00
02872               0.00     3600.00
02873               0.00     3600.00
02874              -2.00     3200.00
02875              -2.00     3200.00
02876               0.00     3000.00
02877               0.00     2800.00
02878               0.00     2400.00
02879              -2.00     2200.00
02880               0.00     2400.00
02881               0.00     2000.00
02882               0.00     1800.00
02883              -2.00     1600.00
02884              -2.00     1600.00
02885               4.00     1200.00
02886               0.00     1000.00
02887               0.00      800.00
02888               0.00      600.00
02889              -2.00      400.00
02890               0.00      400.00
02891               4.00        0.00
02892               6.00        0.00
02893               4.00     -200.00
02894              12.00     -400.00
02895              28.00     -600.00
02896               8.00     -800.00
02897             -20.00    -1000.00
02898             -10.00    -1200.00
02899              22.00    -1200.00
02900              24.00    -1600.00
02901              38.00    -1600.00
02902             196.00    -1600.00
02903             246.00    -2400.00
02904            -248.00    -2600.00
02905            -248.00    -2600.00
02906             -74.00    -2800.00
02907             252.00    -2600.00
02908             252.00    -2600.00
02909             252.00    -3200.00
02910            -248.00    -3400.00
02911            -248.00    -3000.00
02912             252.00    -4200.00
02913             252.00    -3600.00
02914            -248.00    -3600.00
02915            -244.00    -4800.00
02916             138.00    -4000.00
02917             252.00    -4400.00
02918             174.00    -5200.00
02919            -248.00    -4600.00
02920            -188.00    -5000.00
02921             252.00    -5400.00
02922             228.00    -5200.00
02923            -132.00    -5800.00
02924            -248.00    -5800.00
02925               8.00    -6000.00
02926             252.00    -6200.00
02927              92.00    -6200.00
02928            -248.00    -6400.00
02929            -170.00    -6400.00
02930             212.00    -6600.00
02931             204.00    -7200.00
02932            -108.00    -7000.00
02933            -172.00    -7200.00
02934             -26.00    -7200.00
02935             180.00    -7400.00
02936             100.00    -7600.00
02937            -156.00    -7600.00
02938             -74.00    -8000.00
02939              86.00    -8000.00
02940              76.00    -8200.00
02941             -22.00    -8400.00
02942             -84.00    -8400.00
02943               4.00    -8600.00
02944              84.00    -8800.00
02945              24.00    -8800.00
02946             -74.00    -9000.00
02947             -42.00    -9200.00
02948              60.00    -9200.00
02949              48.00    -9200.00
02950             -18.00    -9600.00
02951             -42.00    -9600.00
02952              -8.00    -9600.00
02953              38.00    -9800.00
02954              14.00    -9800.00
02955             -30.00   -10000.00
02956             -12.00   -10000.00
02957              22.00   -10000.00
02958              14.00   -10400.00
02959             -10.00   -10200.00
02960             -16.00   -10200.00
02961               0.00   -10400.00
02962              20.00   -10600.00
02963              12.00   -10600.00
02964             -16.00   -10600.00
02965             -10.00   -10800.00
02966               6.00   -10800.00
02967               4.00   -10800.00
02968              -4.00   -11000.00
02969              -2.00   -11000.00
02970               6.00   -11000.00
02971               6.00   -11200.00
02972              -2.00   -11200.00
02973             -12.00   -11200.00
02974              -2.00   -11400.00
02975              12.00   -11400.00
02976               4.00   -11400.00
02977               0.00   -11400.00
02978              -2.00   -11400.00
02979              -4.00   -11400.00
02980              -2.00   -11400.00
02981               6.00   -11400.00
02982               4.00   -11400.00
02983               4.00   -11400.00
02984               6.00   -11600.00
02985              -4.00   -11400.00
02986              -6.00   -11600.00
02987               0.00   -11400.00
02988               4.00   -11600.00
02989               4.00   -11400.00
02990               4.00   -11600.00
02991              -2.00   -11400.00
02992              -6.00   -11600.00
02993               0.00   -11400.00
02994               0.00   -11400.00
02995               4.00   -11400.00
02996               6.00   -11400.00
02997               2.00   -11400.00
02998              -4.00   -11200.00
02999              -4.00   -11400.00
03000              -4.00   -11400.00
03001               0.00   -11200.00
03002               4.00   -11200.00
03003               2.00   -11200.00
03004              -2.00   -11200.00
03005              -4.00   -11000.00
03006              -6.00   -11000.00
03007              -4.00   -10800.00
03008               0.00   -10800.00
03009               4.00   -10600.00
03010              -2.00   -10800.00
03011              -4.00   -10600.00
03012              -4.00   -10800.00
03013              -4.00   -10600.00
03014              -4.00   -10400.00
03015               0.00   -10400.00
03016               0.00   -10400.00
03017               0.00   -10200.00
03018              -6.00   -10200.00
03019              -8.00   -10000.00
03020              -4.00   -10000.00
03021              -2.00    -9800.00
03022               0.00    -9800.00
03023               0.00    -9600.00
03024              -4.00    -9600.00
03025              -8.00    -9400.00
03026              -6.00    -9400.00
03027              -4.00    -9000.00
03028              -4.00    -9000.00
03029               0.00    -9000.00
03030              -2.00    -8800.00
03031              -4.00    -8800.00
03032              -6.00    -8400.00
03033              -6.00    -8400.00
03034              -4.00    -8400.00
03035              -2.00    -8200.00
03036               0.00    -8000.00
03037              -4.00    -8000.00
03038              -4.00    -7800.00
03039              -8.00    -7800.00
03040              -8.00    -7400.00
03041              -4.00    -7400.00
03042              -4.00    -7200.00
03043              -2.00    -7200.00
03044              -4.00    -6800.00
03045              -4.00    -6600.00
03046             -10.00    -6600.00
03047              -8.00    -6400.00
03048              -2.00    -6400.00
03049              -2.00    -6000.00
03050              -4.00    -6000.00
03051              -4.00    -5800.00
03052              -8.00    -5400.00
03053              -8.00    -5400.00
03054              -4.00    -5200.00
03055              -2.00    -5200.00
03056              -2.00    -4800.00
03057              -4.00    -4800.00
03058              -8.00    -4600.00
03059              -6.00    -4400.00
03060              -6.00    -4400.00
03061              -4.00    -4000.00
03062              -2.00    -4000.00
03063              -4.00    -3800.00
03064              -4.00    -3800.00
03065              -8.00    -3400.00
03066              -8.00    -3200.00
03067              -8.00    -3000.00
03068              -4.00    -2800.00
03069              -4.00    -2800.00
03070              -2.00    -2600.00
03071              -8.00    -2400.00
03072              -8.00    -2400.00
03073             -10.00    -2000.00
03074              -8.00    -1800.00
03075              -4.00    -1600.00
03076              -4.00    -1600.00
03077              -4.00    -1200.00
03078              -4.00    -1000.00
03079             -10.00    -1000.00
03080             -10.00     -800.00
03081              -8.00     -400.00
03082              -4.00     -200.00
03083              -2.00     -200.00
03084              -2.00      200.00
03085              -2.00      200.00
03086              22.00      400.00
03087              16.00      600.00
03088             -20.00      800.00
03089             -24.00     1000.00
03090               4.00     1000.00
03091              20.00     1200.00
03092              38.00     1400.00
03093             246.00     1800.00
03094             198.00     2200.00
03095            -248.00     2200.00
03096            -248.00     2400.00
03097               6.00     2200.00
03098             252.00     2600.00
03099             252.00     3000.00
03100            -104.00     2800.00
03101            -248.00     3200.00
03102             252.00     3600.00
03103             252.00     3600.00
03104            -248.00     3800.00
03105            -248.00     3600.00
03106             186.00     4000.00
03107              60.00     4400.00
03108             252.00     4000.00
03109            -114.00     4800.00
03110            -248.00     5000.00
03111             252.00     4600.00
03112             252.00     5600.00
03113            -100.00     5200.00
03114             -74.00     5200.00
03115            -248.00     6200.00
03116             140.00     5800.00
03117             252.00     5600.00
03118            -124.00     6600.00
03119            -248.00     6000.00
03120             -56.00     6400.00
03121             252.00     7000.00
03122              44.00     6600.00
03123            -218.00     7200.00
03124              20.00     7000.00
03125             -42.00     7400.00
03126              90.00     7200.00
03127              94.00     7400.00
03128            -176.00     7800.00
03129               0.00     7600.00
03130              66.00     8000.00
03131              -6.00     8000.00
03132             -20.00     8000.00
03133             -32.00     8600.00
03134              22.00     8400.00
03135             -12.00     8400.00
03136              22.00     9000.00
03137             -36.00     8600.00
03138             -58.00     9000.00
03139              84.00     9000.00
03140             -18.00     9200.00
03141             -52.00     9200.00
03142              28.00     9400.00
03143             -14.00     9600.00
03144             -16.00     9400.00
03145               4.00    10000.00
03146              -4.00     9800.00
03147             -16.00     9600.00
03148               6.00    10000.00
03149              -4.00    10000.00
03150             -28.00    10200.00
03151              18.00    10200.00
03152               4.00    10200.00
03153             -32.00    10200.00
03154              12.00    10400.00
03155              -2.00    10800.00
03156             -20.00    10400.00
03157               8.00    10600.00
03158             -10.00    10800.00
03159             -28.00    10800.00
03160              14.00    11000.00
03161              20.00    11000.00
03162             -24.00    11000.00
03163             -10.00    11200.00
03164               4.00    11200.00
03165              -8.00    11200.00
03166               4.00    11200.00
03167               4.00    11200.00
03168             -20.00    11200.00
03169              -2.00    11400.00
03170               4.00    11400.00
03171             -10.00    11200.00
03172              -6.00    11400.00
03173               4.00    11400.00
03174              -4.00    11400.00
03175               4.00    11200.00
03176               0.00    11600.00
03177             -18.00    11400.00
03178              -4.00    11400.00
03179              14.00    11600.00
03180              -4.00    11600.00
03181              -4.00    11600.00
03182               2.00    11400.00
03183             -10.00    11400.00
03184              -4.00    11600.00
03185               6.00    11400.00
03186              -4.00    11400.00
03187              -6.00    11400.00
03188               6.00    11200.00
03189              -2.00    11200.00
03190              -4.00    11200.00
03191              -4.00    11400.00
03192              -4.00    11200.00
03193               0.00    11200.00
03194               6.00    11200.00
03195              -4.00    11000.00
03196              -8.00    11200.00
03197              -2.00    10800.00
03198              -2.00    11000.00
03199               0.00    10800.00
03200               6.00    10600.00
03201              -4.00    10800.00
03202              -8.00    10600.00
03203               0.00    10400.00
03204              -4.00    10400.00
03205              -8.00    10400.00
03206              -2.00    10400.00
03207               0.00    10200.00
03208              -2.00    10200.00
03209              -2.00    10000.00
03210              -4.00    10000.00
03211              -6.00     9800.00
03212               0.00     9800.00
03213               0.00     9600.00
03214              -2.00     9400.00
03215               0.00     9400.00
03216              -4.00     9400.00
03217              -4.00     9200.00
03218              -2.00     9200.00
03219              -4.00     8800.00
03220              -2.00     9000.00
03221               0.00     8600.00
03222              -2.00     8600.00
03223              -4.00     8600.00
03224              -4.00     8400.00
03225              -2.00     8400.00
03226              -2.00     8400.00
03227               2.00     8000.00
03228               0.00     8000.00
03229              -4.00     7800.00
03230              -2.00     7600.00
03231               0.00     7600.00
03232               0.00     7400.00
03233               4.00     7400.00
03234              -2.00     7200.00
03235               0.00     6800.00
03236               0.00     6800.00
03237              -2.00     6600.00
03238              -4.00     6400.00
03239               0.00     6200.00
03240               6.00     6200.00
03241               0.00     6000.00
03242               0.00     5600.00
03243              -2.00     5600.00
03244              -2.00     5600.00
03245               0.00     5400.00
03246               4.00     5200.00
03247              -2.00     4800.00
03248              -2.00     4800.00
03249               0.00     4600.00
03250               0.00     4400.00
03251              -4.00     4200.00
03252               0.00     4000.00
03253               4.00     4000.00
03254               4.00     3800.00
03255               0.00     3600.00
03256               0.00     3400.00
03257              -2.00     3200.00
03258               0.00     3000.00
03259               2.00     2800.00
03260               4.00     2600.00
03261               0.00     2400.00
03262               0.00     2200.00
03263               0.00     2200.00
03264              -2.00     1800.00
03265              -2.00     1600.00
03266              -2.00     1600.00
03267               0.00     1400.00
03268               2.00     1200.00
03269               0.00     1000.00
03270               0.00     1000.00
03271               0.00      600.00
03272               0.00      400.00
03273               0.00        0.00
03274               4.00        0.00
03275               4.00     -200.00
03276               4.00     -200.00
03277              20.00     -400.00
03278              28.00     -600.00
03279              -4.00     -800.00
03280             -20.00    -1000.00
03281               6.00    -1200.00
03282              28.00    -1200.00
03283              22.00    -1400.00
03284              76.00    -1600.00
03285             252.00    -1800.00
03286             100.00    -2600.00
03287            -248.00    -2600.00
03288            -248.00    -2600.00
03289             124.00    -2800.00
03290             252.00    -2600.00
03291             252.00    -2800.00
03292              70.00    -3600.00
03293            -248.00    -3200.00
03294             -20.00    -3400.00
03295             252.00    -4400.00
03296             -58.00    -3600.00
03297            -248.00    -4000.00
03298             -48.00    -4400.00
03299             200.00    -4000.00
03300             252.00    -4800.00
03301             -90.00    -5000.00
03302            -248.00    -4600.00
03303              70.00    -5200.00
03304             252.00    -5200.00
03305              86.00    -5400.00
03306            -240.00    -5600.00
03307            -244.00    -5800.00
03308             190.00    -6000.00
03309             252.00    -6200.00
03310             -82.00    -6200.00
03311            -248.00    -6600.00
03312             -22.00    -6400.00
03313             252.00    -6800.00
03314              84.00    -6800.00
03315            -170.00    -7200.00
03316            -136.00    -7200.00
03317              60.00    -7400.00
03318             200.00    -7600.00
03319             -12.00    -7600.00
03320            -168.00    -7600.00
03321               4.00    -8000.00
03322             102.00    -8000.00
03323              46.00    -8200.00
03324             -58.00    -8400.00
03325             -64.00    -8400.00
03326              48.00    -8800.00
03327              78.00    -8800.00
03328             -18.00    -8800.00
03329             -82.00    -9000.00
03330               4.00    -9000.00
03331              72.00    -9200.00
03332              24.00    -9200.00
03333             -36.00    -9400.00
03334             -34.00    -9600.00
03335              14.00    -9600.00
03336              38.00    -9800.00
03337              -4.00    -9800.00
03338             -32.00   -10000.00
03339               6.00   -10000.00
03340              24.00   -10000.00
03341               4.00   -10400.00
03342             -16.00   -10400.00
03343             -10.00   -10400.00
03344               6.00   -10400.00
03345              22.00   -10600.00
03346               4.00   -10600.00
03347             -18.00   -10800.00
03348              -2.00   -10800.00
03349               8.00   -10800.00
03350              -2.00   -10800.00
03351              -4.00   -10800.00
03352               4.00   -11200.00
03353               6.00   -11000.00
03354               2.00   -11200.00
03355              -8.00   -11200.00
03356             -10.00   -11200.00
03357               2.00   -11200.00
03358               8.00   -11200.00
03359               4.00   -11400.00
03360              -2.00   -11400.00
03361              -4.00   -11400.00
03362              -8.00   -11400.00
03363               2.00   -11400.00
03364               4.00   -11400.00
03365               0.00   -11600.00
03366               2.00   -11400.00
03367               0.00   -11600.00
03368              -4.00   -11400.00
03369              -4.00   -11600.00
03370               2.00   -11400.00
03371               4.00   -11600.00
03372               4.00   -11400.00
03373               0.00   -11600.00
03374              -4.00   -11600.00
03375              -4.00   -11600.00
03376              -2.00   -11400.00
03377               0.00   -11400.00
03378               2.00   -11400.00
03379               6.00   -11400.00
03380               2.00   -11400.00
03381              -4.00   -11400.00
03382              -4.00   -11200.00
03383              -2.00   -11200.00
03384               4.00   -11200.00
03385               4.00   -11200.00
03386               4.00   -11200.00
03387               0.00   -11200.00
03388              -4.00   -11000.00
03389              -4.00   -10800.00
03390              -2.00   -10800.00
03391               4.00   -10800.00
03392               4.00   -10800.00
03393              -2.00   -10600.00
03394              -2.00   -10600.00
03395              -4.00   -10800.00
03396              -4.00   -10400.00
03397              -2.00   -10400.00
03398              -2.00   -10400.00
03399               0.00   -10400.00
03400              -4.00   -10200.00
03401              -8.00   -10000.00
03402              -8.00   -10000.00
03403              -6.00   -10000.00
03404              -2.00   -10000.00
03405              -2.00    -9800.00
03406              -2.00    -9600.00
03407              -6.00    -9600.00
03408             -10.00    -9400.00
03409              -4.00    -9200.00
03410              -4.00    -9200.00
03411              -4.00    -9000.00
03412              -2.00    -9000.00
03413              -4.00    -8800.00
03414              -4.00    -8800.00
03415             -10.00    -8800.00
03416              -8.00    -8400.00
03417              -4.00    -8200.00
03418              -2.00    -8200.00
03419              -2.00    -8000.00
03420              -6.00    -8000.00
03421              -8.00    -7800.00
03422              -8.00    -7600.00
03423              -4.00    -7600.00
03424              -2.00    -7400.00
03425              -2.00    -7200.00
03426              -2.00    -7000.00
03427              -4.00    -7000.00
03428              -8.00    -6800.00
03429              -8.00    -6600.00
03430              -8.00    -6600.00
03431              -4.00    -6400.00
03432              -2.00    -6000.00
03433              -4.00    -5800.00
03434              -4.00    -5600.00
03435              -4.00    -5400.00
03436              -6.00    -5600.00
03437              -4.00    -5200.00
03438              -2.00    -5200.00
03439              -2.00    -5000.00
03440              -4.00    -4800.00
03441              -8.00    -4800.00
03442              -8.00    -4400.00
03443              -4.00    -4400.00
03444              -4.00    -4200.00
03445              -4.00    -4000.00
03446              -2.00    -3600.00
03447              -4.00    -3600.00
03448              -8.00    -3400.00
03449              -8.00    -3200.00
03450              -6.00    -3000.00
03451              -4.00    -2800.00
03452              -2.00    -2600.00
03453              -2.00    -2400.00
03454              -8.00    -2400.00
03455              -8.00    -2000.00
03456              -6.00    -1800.00
03457              -4.00    -1600.00
03458              -4.00    -1600.00
03459              -8.00    -1400.00
03460              -8.00    -1000.00
03461              -4.00    -1000.00
03462              -4.00     -800.00
03463              -4.00     -600.00
03464              -4.00     -400.00
03465             -12.00     -400.00
03466              -4.00        0.00
03467               4.00        0.00
03468               8.00      400.00
03469              22.00      400.00
03470              -2.00      600.00
03471             -28.00     1000.00
03472             -14.00     1000.00
03473              20.00     1200.00
03474              20.00     1200.00
03475              86.00     1600.00
03476             252.00     2000.00
03477             -20.00     2200.00
03478            -248.00     2200.00
03479            -248.00     2400.00
03480             164.00     2400.00
03481             252.00     2800.00
03482             252.00     2800.00
03483            -248.00     2800.00
03484            -248.00     3200.00
03485             252.00     3400.00
03486             252.00     3800.00
03487            -248.00     3800.00
03488            -160.00     3800.00
03489             162.00     4400.00
03490             156.00     4200.00
03491             252.00     4400.00
03492            -248.00     5200.00
03493            -248.00     4800.00
03494             252.00     4800.00
03495              72.00     5600.00
03496             -70.00     5000.00
03497            -162.00     5400.00
03498            -210.00     6200.00
03499             252.00     5400.00
03500             188.00     6200.00
03501            -240.00     6400.00
03502            -228.00     6000.00
03503             104.00     6800.00
03504             252.00     6800.00
03505            -134.00     6800.00
03506            -132.00     7200.00
03507              28.00     7000.00
03508             -40.00     7400.00
03509             160.00     7200.00
03510             -34.00     7600.00
03511            -152.00     7800.00
03512              70.00     7600.00
03513              28.00     8400.00
03514              -8.00     7800.00
03515             -32.00     8200.00
03516              -6.00     8600.00
03517              14.00     8200.00
03518              -6.00     8800.00
03519              26.00     8800.00
03520             -72.00     8800.00
03521               4.00     9000.00
03522              76.00     9200.00
03523             -60.00     9200.00
03524             -14.00     9200.00
03525              24.00     9600.00
03526             -24.00     9600.00
03527              -4.00     9600.00
03528               6.00     9800.00
03529             -10.00     9800.00
03530              -4.00    10000.00
03531              12.00    10000.00
03532             -20.00    10000.00
03533             -16.00    10200.00
03534              28.00    10200.00
03535             -18.00    10400.00
03536             -18.00    10400.00
03537              16.00    10400.00
03538             -18.00    10400.00
03539              -8.00    10600.00
03540               8.00    10800.00
03541             -26.00    10800.00
03542             -16.00    10800.00
03543              28.00    11000.00
03544               4.00    10800.00
03545             -26.00    11000.00
03546              -2.00    11000.00
03547              -4.00    11000.00
03548              -4.00    11200.00
03549               8.00    11200.00
03550              -4.00    11200.00
03551             -20.00    11200.00
03552               6.00    11400.00
03553              -2.00    11400.00
03554             -12.00    11200.00
03555               0.00    11400.00
03556              -2.00    11400.00
03557              -4.00    11200.00
03558               6.00    11600.00
03559              -8.00    11600.00
03560             -18.00    11600.00
03561               4.00    11400.00
03562               4.00    11600.00
03563              -8.00    11400.00
03564              -2.00    11600.00
03565               0.00    11600.00
03566             -12.00    11400.00
03567               4.00    11400.00
03568               4.00    11200.00
03569             -10.00    11200.00
03570               0.00    11400.00
03571               4.00    11200.00
03572              -8.00    11200.00
03573              -4.00    11200.00
03574              -4.00    11200.00
03575              -4.00    11200.00
03576               4.00    11000.00
03577               4.00    11200.00
03578              -8.00    11000.00
03579              -4.00    11000.00
03580              -2.00    11000.00
03581              -4.00    11000.00
03582               0.00    10800.00
03583               0.00    10800.00
03584              -4.00    10800.00
03585              -2.00    10600.00
03586               2.00    10600.00
03587              -8.00    10400.00
03588              -4.00    10400.00
03589               4.00    10400.00
03590               0.00    10200.00
03591              -2.00    10000.00
03592              -4.00    10200.00
03593              -6.00    10000.00
03594              -2.00     9800.00
03595               0.00     9800.00
03596              -2.00     9600.00
03597              -4.00     9600.00
03598              -2.00     9400.00
03599              -4.00     9200.00
03600              -2.00     9200.00
03601              -2.00     9000.00
03602              -2.00     9000.00
03603              -4.00     8800.00
03604               0.00     8800.00
03605              -4.00     8600.00
03606              -4.00     8400.00
03607              -2.00     8400.00
03608              -2.00     8200.00
03609              -2.00     8000.00
03610               0.00     7800.00
03611              -4.00     8000.00
03612              -4.00     7600.00
03613              -4.00     7600.00
03614              -2.00     7400.00
03615              -2.00     7200.00
03616              -2.00     7000.00
03617              -4.00     6800.00
03618               0.00     6800.00
03619              -2.00     6600.00
03620              -4.00     6400.00
03621              -4.00     6400.00
03622               2.00     6200.00
03623               4.00     6000.00
03624               0.00     6000.00
03625              -2.00     5800.00
03626              -2.00     5600.00
03627              -2.00     5400.00
03628               4.00     5200.00
03629               2.00     5200.00
03630               0.00     4800.00
03631              -2.00     4800.00
03632               0.00     4600.00
03633              -2.00     4400.00
03634              -2.00     4200.00
03635               0.00     4000.00
03636               4.00     3600.00
03637               2.00     3600.00
03638               0.00     3600.00
03639              -2.00     3200.00
03640              -2.00     3200.00
03641               0.00     3000.00
03642               4.00     2800.00
03643               4.00     2600.00
03644              -2.00     2400.00
03645              -2.00     2200.00
03646               0.00     2000.00
03647               0.00     2000.00
03648               2.00     1600.00
03649              -2.00     1400.00
03650               0.00     1400.00
03651               4.00     1200.00
03652               4.00     1000.00
03653               0.00      800.00
03654              -4.00      600.00
03655              -2.00      400.00
03656               4.00        0.00
03657               6.00        0.00
03658               6.00     -200.00
03659               6.00     -400.00
03660              22.00     -600.00
03661              16.00     -800.00
03662             -12.00    -1000.00
03663             -12.00    -1000.00
03664              12.00    -1200.00
03665              24.00    -1400.00
03666              24.00    -1600.00
03667             142.00    -1600.00
03668             252.00    -2000.00
03669            -116.00    -2600.00
03670            -248.00    -2600.00
03671            -228.00    -2800.00
03672             238.00    -2800.00
03673             252.00    -2600.00
03674             252.00    -3200.00
03675            -248.00    -3600.00
03676            -248.00    -2800.00
03677             252.00    -4000.00
03678             252.00    -4000.00
03679            -248.00    -3400.00
03680            -248.00    -4600.00
03681              84.00    -4400.00
03682             252.00    -4200.00
03683             252.00    -5000.00
03684            -248.00    -4600.00
03685            -248.00    -4800.00
03686             252.00    -5600.00
03687             252.00    -5200.00
03688             -52.00    -5600.00
03689            -248.00    -5400.00
03690            -106.00    -5800.00
03691             252.00    -6200.00
03692             192.00    -6000.00
03693            -220.00    -6400.00
03694            -240.00    -6400.00
03695             132.00    -6600.00
03696             252.00    -7000.00
03697             -44.00    -6800.00
03698            -182.00    -7000.00
03699             -76.00    -7400.00
03700             142.00    -7400.00
03701             156.00    -7600.00
03702            -114.00    -7600.00
03703            -120.00    -8000.00
03704              62.00    -8000.00
03705              92.00    -8000.00
03706               6.00    -8400.00
03707             -82.00    -8200.00
03708             -28.00    -8600.00
03709              76.00    -8600.00
03710              52.00    -8800.00
03711             -56.00    -9000.00
03712             -64.00    -9000.00
03713              44.00    -9200.00
03714              64.00    -9200.00
03715              -4.00    -9200.00
03716             -40.00    -9400.00
03717             -20.00    -9600.00
03718              36.00    -9800.00
03719              30.00    -9800.00
03720             -24.00    -9800.00
03721             -18.00   -10000.00
03722              20.00   -10000.00
03723              20.00   -10200.00
03724              -8.00   -10400.00
03725             -16.00   -10400.00
03726              -4.00   -10400.00
03727              16.00   -10400.00
03728              16.00   -10600.00
03729              -8.00   -10600.00
03730             -16.00   -10600.00
03731               4.00   -10800.00
03732               6.00   -10800.00
03733               0.00   -10800.00
03734               0.00   -11000.00
03735               6.00   -11200.00
03736               6.00   -11200.00
03737               0.00   -11200.00
03738             -10.00   -11400.00
03739              -4.00   -11200.00
03740               8.00   -11200.00
03741               6.00   -11200.00
03742               0.00   -11400.00
03743              -2.00   -11400.00
03744              -4.00   -11400.00
03745              -4.00   -11400.00
03746               4.00   -11400.00
03747               4.00   -11400.00
03748               0.00   -11600.00
03749               4.00   -11400.00
03750              -2.00   -11400.00
03751             -10.00   -11600.00
03752              -2.00   -11600.00
03753               4.00   -11600.00
03754               4.00   -11600.00
03755               4.00   -11400.00
03756              -2.00   -11600.00
03757              -4.00   -11600.00
03758              -4.00   -11400.00
03759              -2.00   -11400.00
03760               2.00   -11400.00
03761               4.00   -11400.00
03762               4.00   -11400.00
03763              -4.00   -11400.00
03764              -6.00   -11400.00
03765              -4.00   -11200.00
03766               0.00   -11400.00
03767               0.00   -11200.00
03768               0.00   -11200.00
03769               0.00   -11000.00
03770              -4.00   -11200.00
03771              -4.00   -10800.00
03772              -4.00   -10800.00
03773               0.00   -10800.00
03774               4.00   -10800.00
03775               0.00   -10600.00
03776              -2.00   -10600.00
03777              -4.00   -10600.00
03778              -4.00   -10600.00
03779              -4.00   -10400.00
03780               0.00   -10200.00
03781               0.00   -10400.00
03782               0.00   -10000.00
03783              -2.00   -10200.00
03784              -8.00   -10000.00
03785              -8.00    -9800.00
03786              -4.00   -10000.00
03787              -2.00    -9800.00
03788               0.00    -9600.00
03789              -4.00    -9600.00
03790              -8.00    -9200.00
03791              -6.00    -9400.00
03792              -4.00    -9200.00
03793              -4.00    -9000.00
03794              -2.00    -9000.00
03795              -2.00    -8800.00
03796              -4.00    -8800.00
03797              -6.00    -8600.00
03798              -8.00    -8800.00
03799              -6.00    -8400.00
03800              -4.00    -8400.00
03801              -2.00    -8000.00
03802              -2.00    -8000.00
03803              -6.00    -8000.00
03804              -8.00    -7600.00
03805              -8.00    -7600.00
03806              -4.00    -7400.00
03807              -4.00    -7400.00
03808              -4.00    -7200.00
03809              -4.00    -7000.00
03810              -8.00    -6800.00
03811             -10.00    -6600.00
03812              -6.00    -6600.00
03813              -4.00    -6400.00
03814              -4.00    -6000.00
03815              -2.00    -6000.00
03816              -4.00    -6000.00
03817              -4.00    -5600.00
03818              -8.00    -5400.00
03819              -8.00    -5400.00
03820              -4.00    -5200.00
03821              -2.00    -5000.00
03822              -4.00    -4800.00
03823              -8.00    -4800.00
03824              -8.00    -4600.00
03825              -8.00    -4400.00
03826              -4.00    -4200.00
03827              -4.00    -4000.00
03828               0.00    -3800.00
03829              -4.00    -3600.00
03830              -8.00    -3600.00
03831             -10.00    -3400.00
03832              -8.00    -3200.00
03833              -4.00    -2800.00
03834              -2.00    -2800.00
03835              -4.00    -2600.00
03836              -4.00    -2400.00
03837              -8.00    -2200.00
03838              -4.00    -2000.00
03839              -6.00    -1800.00
03840              -4.00    -1600.00
03841              -2.00    -1400.00
03842              -4.00    -1200.00
03843              -4.00    -1000.00
03844              -8.00     -800.00
03845              -8.00     -800.00
03846              -4.00     -400.00
03847              -4.00     -400.00
03848              -2.00     -200.00
03849              -2.00        0.00
03850              -2.00        0.00
03851              16.00      400.00
03852              22.00      600.00
03853             -10.00      800.00
03854             -28.00      800.00
03855              -2.00     1200.00
03856              20.00     1200.00
03857              24.00     1200.00
03858             184.00     1600.00
03859             252.00     2000.00
03860            -248.00     2200.00
03861            -248.00     2400.00
03862            -130.00     2200.00
03863             252.00     2200.00
03864             252.00     3000.00
03865             252.00     2800.00
03866            -248.00     2800.00
03867            -248.00     3400.00
03868             252.00     3200.00
03869              46.00     3800.00
03870            -248.00     3800.00
03871             108.00     3800.00
03872              78.00     4400.00
03873             252.00     4000.00
03874             136.00     4600.00
03875            -248.00     5200.00
03876              84.00     4600.00
03877             252.00     5200.00
03878             -68.00     5600.00
03879             -56.00     5000.00
03880            -248.00     6000.00
03881              -4.00     6000.00
03882             252.00     5600.00
03883             -16.00     6400.00
03884            -248.00     6200.00
03885            -138.00     6200.00
03886             236.00     7000.00
03887             168.00     6600.00
03888            -220.00     7000.00
03889             -36.00     7000.00
03890             -10.00     7200.00
03891              32.00     7400.00
03892             148.00     7400.00
03893            -144.00     7600.00
03894             -58.00     7600.00
03895              82.00     8000.00
03896              -2.00     8200.00
03897             -12.00     7800.00
03898             -34.00     8400.00
03899              20.00     8400.00
03900              -4.00     8400.00
03901              12.00     8800.00
03902              -4.00     8800.00
03903             -76.00     8800.00
03904              62.00     9000.00
03905              30.00     9200.00
03906             -68.00     9200.00
03907              20.00     9200.00
03908               4.00     9600.00
03909             -20.00     9600.00
03910               6.00     9600.00
03911               0.00    10000.00
03912             -16.00     9600.00
03913               4.00    10000.00
03914              10.00    10200.00
03915             -28.00    10000.00
03916               6.00    10200.00
03917              14.00    10200.00
03918             -32.00    10200.00
03919               4.00    10400.00
03920               8.00    10600.00
03921             -18.00    10400.00
03922               4.00    10600.00
03923              -4.00    10800.00
03924             -28.00    10800.00
03925               4.00    11000.00
03926              24.00    10800.00
03927             -16.00    11000.00
03928             -20.00    11000.00
03929               0.00    11000.00
03930              -8.00    11200.00
03931               2.00    11200.00
03932               4.00    11200.00
03933             -18.00    11200.00
03934             -10.00    11200.00
03935               6.00    11200.00
03936             -10.00    11400.00
03937             -12.00    11200.00
03938               2.00    11400.00
03939              -4.00    11200.00
03940              -2.00    11400.00
03941               4.00    11600.00
03942             -16.00    11400.00
03943             -10.00    11400.00
03944              12.00    11400.00
03945              -2.00    11400.00
03946             -10.00    11200.00
03947               2.00    11400.00
03948              -8.00    11600.00
03949              -6.00    11400.00
03950               2.00    11600.00
03951              -4.00    11200.00
03952              -8.00    11400.00
03953               2.00    11200.00
03954              -2.00    11200.00
03955              -8.00    11200.00
03956              -4.00    11400.00
03957              -4.00    11200.00
03958              -2.00    11200.00
03959               6.00    11000.00
03960              -2.00    11200.00
03961             -10.00    11000.00
03962              -2.00    11000.00
03963              -2.00    11000.00
03964              -2.00    10800.00
03965               4.00    10800.00
03966               0.00    10800.00
03967              -8.00    10600.00
03968              -2.00    10400.00
03969               0.00    10600.00
03970              -4.00    10400.00
03971              -2.00    10200.00
03972               4.00    10400.00
03973               0.00    10200.00
03974              -2.00    10000.00
03975              -4.00    10000.00
03976             -12.00    10000.00
03977              -4.00     9800.00
03978               0.00     9800.00
03979               6.00     9600.00
03980              12.00     9400.00
03981               0.00     9400.00
03982              -8.00     9200.00
03983             -12.00     9200.00
03984              -8.00     9000.00
03985               0.00     8800.00
03986               8.00     8800.00
03987               4.00     8800.00
03988              -8.00     8400.00
03989              -8.00     8600.00
03990              -2.00     8400.00
03991               2.00     8200.00
03992               4.00     8000.00
03993               0.00     8000.00
03994              -4.00     7800.00
03995              -4.00     7600.00
03996              -2.00     7600.00
03997               4.00     7400.00
03998              -4.00     7200.00
03999              -2.00     7000.00
04000              -4.00     7000.00
04001               0.00     6800.00
04002              -2.00     6400.00
04003              -4.00     6400.00
04004              -4.00     6200.00
04005               0.00     6000.00
04006               0.00     6000.00
04007              -2.00     5800.00
04008              -2.00     5600.00
04009               0.00     5600.00
04010              -2.00     5400.00
04011               0.00     5200.00
04012              -2.00     5000.00
04013              -2.00     4800.00
04014               2.00     4600.00
04015               0.00     4400.00
04016              -2.00     4200.00
04017              -4.00     4000.00
04018               0.00     4000.00
04019               0.00     3800.00
04020               0.00     3600.00
04021              -2.00     3400.00
04022              -2.00     3200.00
04023               2.00     3200.00
04024               4.00     2800.00
04025               4.00     2800.00
04026               0.00     2400.00
04027               0.00     2400.00
04028              -2.00     2200.00
04029              -2.00     2000.00
04030               4.00     2000.00
04031               4.00     1600.00
04032               0.00     1400.00
04033               4.00     1400.00
04034               0.00     1200.00
04035              -2.00      800.00
04036               2.00      800.00
04037               0.00      600.00
04038               4.00      400.00
04039               6.00        0.00
04040               6.00     -200.00
04041               6.00     -200.00
04042              16.00     -400.00
04043              30.00     -600.00
04044               6.00     -800.00
04045             -20.00     -800.00
04046              -4.00    -1000.00
04047              22.00    -1200.00
04048              24.00    -1400.00
04049              46.00    -1600.00
04050             224.00    -1800.00
04051             206.00    -2400.00
04052            -248.00    -2600.00
04053            -248.00    -2600.00
04054               4.00    -2800.00
04055             252.00    -2800.00
04056             252.00    -2600.00
04057             252.00    -3600.00
04058            -248.00    -3400.00
04059            -248.00    -3200.00
04060             252.00    -4200.00
04061             252.00    -3600.00
04062            -248.00    -3800.00
04063            -168.00    -4600.00
04064             158.00    -4000.00
04065             252.00    -4400.00
04066              88.00    -5000.00
04067            -248.00    -4600.00
04068            -100.00    -5200.00
04069             252.00    -5200.00
04070             174.00    -5200.00
04071            -176.00    -5800.00
04072            -248.00    -5800.00
04073              72.00    -5800.00
04074             252.00    -6200.00
04075              30.00    -6200.00
04076            -248.00    -6400.00
04077            -120.00    -6600.00
04078             244.00    -6800.00
04079             166.00    -7000.00
04080            -138.00    -7200.00
04081            -160.00    -7200.00
04082               4.00    -7200.00
04083             190.00    -7600.00
04084              62.00    -7600.00
04085            -166.00    -7600.00
04086             -48.00    -8000.00
04087              94.00    -8000.00
04088              70.00    -8200.00
04089             -36.00    -8400.00
04090             -76.00    -8200.00
04091              22.00    -8800.00
04092              86.00    -8800.00
04093               8.00    -8800.00
04094             -80.00    -9000.00
04095             -26.00    -9000.00
04096              68.00    -9200.00
04097              40.00    -9200.00
04098             -26.00    -9400.00
04099             -40.00    -9600.00
04100               0.00    -9600.00
04101              44.00    -9800.00
04102              10.00    -9800.00
04103             -30.00    -9800.00
04104              -4.00   -10000.00
04105              24.00   -10000.00
04106              12.00   -10400.00
04107             -12.00   -10200.00
04108             -14.00   -10400.00
04109               6.00   -10400.00
04110              20.00   -10600.00
04111               8.00   -10400.00
04112             -14.00   -10600.00
04113              -8.00   -10800.00
04114               8.00   -10800.00
04115               4.00   -10800.00
04116              -4.00   -10800.00
04117               0.00   -11000.00
04118               8.00   -11200.00
04119               6.00   -11200.00
04120              -4.00   -11200.00
04121             -12.00   -11400.00
04122               0.00   -11200.00
04123               8.00   -11400.00
04124               4.00   -11200.00
04125               0.00   -11200.00
04126              -4.00   -11400.00
04127              -8.00   -11400.00
04128              -2.00   -11400.00
04129               6.00   -11600.00
04130               0.00   -11400.00
04131               2.00   -11600.00
04132               4.00   -11600.00
04133              -4.00   -11600.00
04134             -10.00   -11400.00
04135               0.00   -11600.00
04136               4.00   -11400.00
04137               4.00   -11600.00
04138              -2.00   -11600.00
04139              -4.00   -11400.00
04140              -4.00   -11600.00
04141              -4.00   -11400.00
04142              -2.00   -11400.00
04143               4.00   -11400.00
04144               4.00   -11400.00
04145               0.00   -11200.00
04146              -4.00   -11200.00
04147              -4.00   -11400.00
04148              -4.00   -11200.00
04149              -2.00   -11200.00
04150               2.00   -11200.00
04151               4.00   -11000.00
04152              -4.00   -11200.00
04153              -6.00   -11000.00
04154              -8.00   -11000.00
04155              -2.00   -11000.00
04156               2.00   -10800.00
04157               6.00   -10800.00
04158              -2.00   -10600.00
04159              -2.00   -10800.00
04160              -4.00   -10600.00
04161              -4.00   -10600.00
04162              -2.00   -10400.00
04163               0.00   -10400.00
04164               0.00   -10400.00
04165              -2.00   -10200.00
04166              -4.00   -10000.00
04167              -4.00   -10000.00
04168              -4.00    -9800.00
04169              -2.00    -9800.00
04170               0.00    -9800.00
04171               0.00    -9600.00
04172              -2.00    -9600.00
04173              -8.00    -9200.00
04174              -4.00    -9200.00
04175              -4.00    -9200.00
04176              -2.00    -9200.00
04177               0.00    -9000.00
04178              -2.00    -8800.00
04179              -4.00    -8800.00
04180              -8.00    -8400.00
04181              -8.00    -8400.00
04182              -4.00    -8200.00
04183              -4.00    -8200.00
04184               0.00    -8200.00
04185              -4.00    -8000.00
04186              -6.00    -7800.00
04187              -8.00    -7600.00
04188              -6.00    -7400.00
04189              -4.00    -7400.00
04190              -4.00    -7400.00
04191              -4.00    -7000.00
04192              -4.00    -7200.00
04193              -8.00    -6800.00
04194              -8.00    -6600.00
04195              -4.00    -6600.00
04196              -6.00    -6400.00
04197              -2.00    -6400.00
04198              -4.00    -6000.00
04199              -8.00    -5800.00
04200              -8.00    -5600.00
04201              -8.00    -5400.00
04202              -4.00    -5200.00
04203              -4.00    -5000.00
04204              -4.00    -5000.00
04205              -4.00    -4800.00
04206              -8.00    -4600.00
04207              -8.00    -4400.00
04208              -4.00    -4400.00
04209              -4.00    -4000.00
04210              -2.00    -4000.00
04211              -4.00    -3800.00
04212              -4.00    -3600.00
04213              -8.00    -3400.00
04214              -8.00    -3400.00
04215              -4.00    -3200.00
04216              -4.00    -2800.00
04217              -2.00    -2800.00
04218              -4.00    -2400.00
04219              -4.00    -2400.00
04220              -8.00    -2200.00
04221              -8.00    -2000.00
04222              -4.00    -1800.00
04223              -6.00    -1600.00
04224              -4.00    -1200.00
04225               4.00    -1200.00
04226               0.00    -1000.00
04227              -8.00     -800.00
04228             -10.00     -800.00
04229             -10.00     -400.00
04230               0.00     -400.00
04231               2.00        0.00
04232              -2.00        0.00
04233               0.00      400.00
04234              22.00      400.00
04235              14.00      600.00
04236             -20.00     1000.00
04237             -18.00     1000.00
04238              12.00     1200.00
04239              20.00     1200.00
04240              52.00     1600.00
04241             252.00     2000.00
04242             134.00     2000.00
04243            -248.00     2400.00
04244            -248.00     2400.00
04245              68.00     2200.00
04246             252.00     2600.00
04247             252.00     3000.00
04248            -248.00     2800.00
04249            -248.00     3200.00
04250             252.00     3200.00
04251             252.00     3400.00
04252            -248.00     4000.00
04253            -248.00     3600.00
04254             196.00     4000.00
04255              76.00     4200.00
04256             252.00     4000.00
04257            -248.00     4800.00
04258            -248.00     4800.00
04259             252.00     4600.00
04260             216.00     5600.00
04261             -92.00     5200.00
04262            -100.00     5200.00
04263            -248.00     6200.00
04264             220.00     5600.00
04265             252.00     5800.00
04266            -178.00     6800.00
04267            -248.00     5800.00
04268              -2.00     6400.00
04269             252.00     7000.00
04270             -26.00     6600.00
04271            -194.00     7200.00
04272              28.00     7000.00
04273             -50.00     7400.00
04274             124.00     7200.00
04275              54.00     7600.00
04276            -176.00     7800.00
04277              30.00     7600.00
04278              54.00     8000.00
04279              -8.00     8000.00
04280             -26.00     8000.00
04281             -26.00     8600.00
04282              22.00     8200.00
04283             -12.00     8600.00
04284              28.00     8800.00
04285             -48.00     8800.00
04286             -36.00     9200.00
04287              86.00     9000.00
04288             -34.00     9400.00
04289             -40.00     9200.00
04290              32.00     9400.00
04291             -18.00     9600.00
04292             -10.00     9400.00
04293               6.00    10000.00
04294              -4.00     9800.00
04295             -10.00     9800.00
04296              10.00    10000.00
04297              -8.00    10200.00
04298             -24.00    10200.00
04299              24.00    10200.00
04300              -4.00    10200.00
04301             -26.00    10400.00
04302              16.00    10400.00
04303              -8.00    10800.00
04304             -12.00    10600.00
04305              10.00    11000.00
04306             -14.00    10800.00
04307             -24.00    10800.00
04308              20.00    10800.00
04309              12.00    11000.00
04310             -26.00    11000.00
04311              -8.00    11000.00
04312               2.00    11200.00
04313             -10.00    11000.00
04314               6.00    11200.00
04315              -2.00    11200.00
04316             -16.00    11200.00
04317              -2.00    11200.00
04318               2.00    11400.00
04319             -12.00    11200.00
04320              -4.00    11200.00
04321              -2.00    11200.00
04322              -4.00    11400.00
04323               4.00    11400.00
04324              -2.00    11400.00
04325             -20.00    11400.00
04326              -2.00    11600.00
04327               6.00    11600.00
04328              -8.00    11600.00
04329              -4.00    11600.00
04330              -2.00    11400.00
04331             -10.00    11400.00
04332              -4.00    11600.00
04333               4.00    11400.00
04334              -8.00    11200.00
04335              -4.00    11200.00
04336               6.00    11200.00
04337               6.00    11400.00
04338             -12.00    11200.00
04339             -18.00    11200.00
04340               4.00    11200.00
04341             -10.00    11000.00
04342             -14.00    11200.00
04343             -48.00    11000.00
04344              44.00    11000.00
04345              40.00    11000.00
04346               4.00    10800.00
04347             -24.00    11000.00
04348              -4.00    10600.00
04349              12.00    10800.00
04350             -34.00    10600.00
04351             -40.00    10400.00
04352               8.00    10400.00
04353              44.00    10400.00
04354              -2.00    10400.00
04355             -28.00    10200.00
04356              -8.00    10200.00
04357              46.00    10200.00
04358               8.00    10000.00
04359             -44.00     9800.00
04360             -24.00     9600.00
04361               0.00     9600.00
04362              32.00     9600.00
04363              12.00     9400.00
04364             -20.00     9400.00
04365             -18.00     9200.00
04366               4.00     9200.00
04367              12.00     9000.00
04368               4.00     8800.00
04369             -10.00     8800.00
04370             -12.00     8600.00
04371               6.00     8600.00
04372              20.00     8400.00
04373             -12.00     8400.00
04374             -20.00     8000.00
04375               8.00     8000.00
04376              14.00     7800.00
04377               0.00     7600.00
04378             -16.00     7600.00
04379              -8.00     7600.00
04380               6.00     7200.00
04381              12.00     7200.00
04382               0.00     7000.00
04383             -16.00     6800.00
04384              -4.00     6800.00
04385              -2.00     6600.00
04386               8.00     6400.00
04387               0.00     6200.00
04388             -12.00     6000.00
04389              -4.00     6000.00
04390              12.00     5800.00
04391               6.00     5600.00
04392              -8.00     5400.00
04393             -10.00     5200.00
04394               4.00     5200.00
04395              12.00     4800.00
04396               0.00     4800.00
04397             -10.00     4800.00
04398             -12.00     4400.00
04399               4.00     4400.00
04400               8.00     4000.00
04401               4.00     3800.00
04402              -2.00     3600.00
04403              -2.00     3600.00
04404               4.00     3400.00
04405               6.00     3200.00
04406              -2.00     3000.00
04407              -4.00     2800.00
04408               0.00     2800.00
04409               6.00     2400.00
04410               4.00     2200.00
04411              -4.00     2200.00
04412               0.00     1800.00
04413               4.00     1800.00
04414               4.00     1600.00
04415               2.00     1400.00
04416               0.00     1200.00
04417               2.00      800.00
04418               0.00      800.00
04419              -2.00      600.00
04420               0.00      400.00
04421               0.00      400.00
04422               6.00        0.00
04423               8.00     -200.00
04424               6.00     -400.00
04425              22.00     -600.00
04426              24.00     -600.00
04427              -6.00    -1000.00
04428             -16.00    -1000.00
04429              12.00    -1000.00
04430              24.00    -1200.00
04431              22.00    -1600.00
04432             100.00    -1600.00
04433             252.00    -2000.00
04434              30.00    -2600.00
04435            -248.00    -2600.00
04436            -248.00    -2800.00
04437             180.00    -2800.00
04438             252.00    -2600.00
04439             252.00    -2800.00
04440             -74.00    -3600.00
04441            -248.00    -3000.00
04442             190.00    -3400.00
04443             252.00    -4200.00
04444            -236.00    -3400.00
04445            -248.00    -4200.00
04446               8.00    -4400.00
04447             228.00    -4000.00
04448             252.00    -5000.00
04449            -188.00    -5000.00
04450            -248.00    -4800.00
04451             156.00    -5400.00
04452             252.00    -5200.00
04453              30.00    -5400.00
04454            -248.00    -5800.00
04455            -200.00    -5800.00
04456             238.00    -6000.00
04457             252.00    -6000.00
04458            -136.00    -6400.00
04459            -248.00    -6600.00
04460              36.00    -6600.00
04461             252.00    -6800.00
04462              36.00    -7000.00
04463            -184.00    -7200.00
04464            -116.00    -7600.00
04465              92.00    -7400.00
04466             192.00    -7600.00
04467             -52.00    -7600.00
04468            -156.00    -7800.00
04469              26.00    -8000.00
04470             104.00    -8000.00
04471              34.00    -8400.00
04472             -72.00    -8400.00
04473             -56.00    -8400.00
04474              60.00    -8800.00
04475              70.00    -8800.00
04476             -36.00    -9000.00
04477             -80.00    -9200.00
04478              18.00    -9200.00
04479              72.00    -9400.00
04480              14.00    -9200.00
04481             -36.00    -9600.00
04482             -32.00    -9600.00
04483              22.00    -9800.00
04484              38.00    -9800.00
04485             -10.00    -9800.00
04486             -26.00   -10000.00
04487              12.00   -10000.00
04488              24.00   -10000.00
04489               0.00   -10400.00
04490             -16.00   -10400.00
04491              -8.00   -10600.00
04492              12.00   -10600.00
04493              22.00   -10600.00
04494               0.00   -10600.00
04495             -16.00   -10800.00
04496               4.00   -10800.00
04497               6.00   -10800.00
04498              -2.00   -10800.00
04499              -4.00   -10800.00
04500               6.00   -11200.00
04501               6.00   -11000.00
04502               4.00   -11200.00
04503              -8.00   -11200.00
04504              -8.00   -11400.00
04505               6.00   -11200.00
04506               8.00   -11400.00
04507               0.00   -11400.00
04508              -2.00   -11400.00
04509              -4.00   -11400.00
04510              -4.00   -11400.00
04511               0.00   -11600.00
04512               4.00   -11400.00
04513               4.00   -11600.00
04514               2.00   -11400.00
04515               0.00   -11600.00
04516             -10.00   -11600.00
04517              -4.00   -11400.00
04518               0.00   -11600.00
04519               4.00   -11600.00
04520               2.00   -11400.00
04521              -2.00   -11600.00
04522              -4.00   -11600.00
04523              -6.00   -11600.00
04524              -4.00   -11400.00
04525              -2.00   -11400.00
04526               0.00   -11400.00
04527               4.00   -11400.00
04528              -2.00   -11400.00
04529              -6.00   -11400.00
04530              -4.00   -11200.00
04531              -4.00   -11200.00
04532               0.00   -11200.00
04533               4.00   -11200.00
04534               0.00   -11200.00
04535              -2.00   -11000.00
04536              -4.00   -11200.00
04537              -4.00   -11000.00
04538              -2.00   -10800.00
04539               2.00   -10800.00
04540               0.00   -10800.00
04541              -4.00   -10600.00
04542              -2.00   -10600.00
04543              -4.00   -10800.00
04544              -4.00   -10600.00
04545              -2.00   -10400.00
04546               0.00   -10400.00
04547               0.00   -10200.00
04548              -4.00   -10200.00
04549              -6.00   -10000.00
04550              -8.00   -10000.00
04551              -2.00    -9800.00
04552              -2.00    -9800.00
04553               0.00    -9600.00
04554              -2.00    -9600.00
04555              -4.00    -9600.00
04556              -8.00    -9400.00
04557              -4.00    -9200.00
04558              -4.00    -9200.00
04559               0.00    -9000.00
04560               0.00    -9000.00
04561              -2.00    -8800.00
04562              -4.00    -8800.00
04563              -8.00    -8800.00
04564              -4.00    -8400.00
04565              -2.00    -8200.00
04566              -2.00    -8000.00
04567              -2.00    -8000.00
04568              -4.00    -8000.00
04569              -4.00    -7800.00
04570              -6.00    -7600.00
04571              -4.00    -7400.00
04572              -2.00    -7400.00
04573              -4.00    -7200.00
04574              -4.00    -7200.00
04575              -4.00    -7000.00
04576              -8.00    -6800.00
04577              -8.00    -6600.00
04578              -6.00    -6400.00
04579              -4.00    -6400.00
04580              -2.00    -6000.00
04581              -4.00    -6000.00
04582              -8.00    -5800.00
04583              -8.00    -5600.00
04584              -8.00    -5400.00
04585              -4.00    -5200.00
04586              -2.00    -5200.00
04587              -4.00    -5000.00
04588              -4.00    -4800.00
04589              -8.00    -4600.00
04590              -8.00    -4400.00
04591             -10.00    -4400.00
04592              -4.00    -4200.00
04593              -2.00    -4000.00
04594              -4.00    -3600.00
04595              -6.00    -3600.00
04596              -8.00    -3400.00
04597              -8.00    -3200.00
04598              -4.00    -3200.00
04599              -4.00    -2800.00
04600              -4.00    -2600.00
04601              -4.00    -2600.00
04602              -8.00    -2400.00
04603              -8.00    -2200.00
04604              -8.00    -1800.00
04605              -4.00    -1800.00
04606              -4.00    -1400.00
04607              -2.00    -1200.00
04608              -4.00    -1200.00
04609              -6.00    -1000.00
04610              -8.00     -800.00
04611              -4.00     -600.00
04612              -4.00     -400.00
04613              -2.00     -200.00
04614               0.00        0.00
04615               0.00        0.00
04616               8.00      400.00
04617              24.00      600.00
04618              -2.00      600.00
04619             -26.00     1000.00
04620              -8.00     1200.00
04621              20.00     1200.00
04622              22.00     1400.00
04623             124.00     1600.00
04624             252.00     2000.00
04625            -112.00     2200.00
04626            -248.00     2400.00
04627            -248.00     2400.00
04628             212.00     2400.00
04629             252.00     2800.00
04630             252.00     3000.00
04631            -248.00     2800.00
04632            -248.00     3400.00
04633             252.00     3200.00
04634             252.00     3800.00
04635            -248.00     3800.00
04636             -44.00     3800.00
04637             130.00     4400.00
04638             220.00     4000.00
04639             252.00     4400.00
04640            -248.00     5000.00
04641            -180.00     4600.00
04642             252.00     4800.00
04643               6.00     5600.00
04644             -56.00     4800.00
04645            -202.00     5600.00
04646            -150.00     6200.00
04647             252.00     5600.00
04648             116.00     6200.00
04649            -248.00     6400.00
04650            -202.00     6000.00
04651             156.00     7000.00
04652             252.00     6400.00
04653            -178.00     6800.00
04654             -94.00     7200.00
04655              12.00     7200.00
04656             -20.00     7400.00
04657             164.00     7200.00
04658             -80.00     7800.00
04659            -124.00     7800.00
04660              78.00     7600.00
04661              14.00     8400.00
04662             -10.00     7800.00
04663             -36.00     8400.00
04664               0.00     8400.00
04665               8.00     8400.00
04666              -2.00     8800.00
04667              18.00     8800.00
04668             -80.00     8800.00
04669              28.00     9000.00
04670              60.00     9200.00
04671             -68.00     9200.00
04672               0.00     9200.00
04673              20.00     9600.00
04674             -24.00     9400.00
04675               0.00     9600.00
04676               4.00     9800.00
04677             -10.00     9600.00
04678              -4.00    10000.00
04679              10.00    10000.00
04680             -22.00    10200.00
04681             -10.00    10200.00
04682              24.00    10200.00
04683             -24.00    10400.00
04684             -12.00    10400.00
04685              16.00    10400.00
04686             -16.00    10600.00
04687              -2.00    10800.00
04688               4.00    10800.00
04689             -26.00    10800.00
04690              -8.00    11000.00
04691              24.00    11000.00
04692              -4.00    11000.00
04693             -26.00    11000.00
04694               2.00    11000.00
04695              -4.00    11200.00
04696              -4.00    11200.00
04697              10.00    11200.00
04698             -10.00    11200.00
04699             -12.00    11400.00
04700               6.00    11200.00
04701              -4.00    11400.00
04702             -12.00    11200.00
04703               0.00    11400.00
04704              -4.00    11600.00
04705              -4.00    11400.00
04706               6.00    11600.00
04707             -12.00    11200.00
04708             -18.00    11400.00
04709               6.00    11600.00
04710               4.00    11400.00
04711             -10.00    11400.00
04712              -2.00    11600.00
04713              -4.00    11600.00
04714             -10.00    11200.00
04715               4.00    11600.00
04716               0.00    11400.00
04717             -10.00    11200.00
04718              -2.00    11200.00
04719               0.00    11200.00
04720              -8.00    11200.00
04721              -8.00    11200.00
04722              -4.00    11200.00
04723              -4.00    11200.00
04724               4.00    11000.00
04725               0.00    11000.00
04726              -8.00    11000.00
04727              -4.00    11000.00
04728              -2.00    11000.00
04729              -4.00    10800.00
04730               4.00    10800.00
04731               0.00    10600.00
04732              -4.00    10600.00
04733              -2.00    10600.00
04734              -2.00    10400.00
04735              -6.00    10400.00
04736              -2.00    10200.00
04737               4.00    10200.00
04738               0.00    10200.00
04739              -2.00    10000.00
04740              -2.00    10000.00
04741              -4.00    10000.00
04742              -2.00     9800.00
04743               4.00     9600.00
04744               0.00     9600.00
04745               0.00     9400.00
04746              -2.00     9400.00
04747              -2.00     9400.00
04748              -2.00     9200.00
04749               4.00     9200.00
04750              -2.00     8800.00
04751               0.00     8800.00
04752               4.00     8800.00
04753              -2.00     8600.00
04754              -4.00     8400.00
04755               4.00     8400.00
04756               0.00     8400.00
04757              -2.00     8200.00
04758               4.00     8000.00
04759               0.00     7800.00
04760              -4.00     7600.00
04761              -2.00     7600.00
04762               0.00     7400.00
04763               4.00     7200.00
04764              -2.00     7000.00
04765               2.00     6800.00
04766               0.00     7000.00
04767              -4.00     6600.00
04768              -4.00     6600.00
04769              -2.00     6400.00
04770               4.00     6200.00
04771               0.00     6000.00
04772              -2.00     5800.00
04773               0.00     5600.00
04774              -2.00     5600.00
04775               0.00     5400.00
04776               0.00     5200.00
04777               0.00     5200.00
04778               0.00     5000.00
04779              -2.00     4800.00
04780               4.00     4600.00
04781              -4.00     4400.00
04782              -2.00     4400.00
04783               0.00     3800.00
04784               2.00     3800.00
04785               0.00     3600.00
04786              -2.00     3600.00
04787              -2.00     3200.00
04788              -2.00     3000.00
04789               0.00     2800.00
04790               4.00     2600.00
04791               2.00     2600.00
04792              -2.00     2400.00
04793               0.00     2200.00
04794               0.00     2000.00
04795              -2.00     1800.00
04796               0.00     1600.00
04797               4.00     1600.00
04798               4.00     1400.00
04799               2.00     1200.00
04800               0.00     1000.00
04801               0.00      600.00
04802               0.00      600.00
04803               2.00      400.00
04804               4.00      200.00
04805               6.00        0.00
04806               6.00     -200.00
04807              12.00     -400.00
04808              30.00     -600.00
04809              14.00     -800.00
04810             -18.00    -1000.00
04811             -10.00    -1000.00
04812              20.00    -1200.00
04813              24.00    -1400.00
04814              32.00    -1600.00
04815             172.00    -1600.00
04816             252.00    -2400.00
04817            -200.00    -2600.00
04818            -248.00    -2800.00
04819            -140.00    -2800.00
04820             252.00    -2800.00
04821             252.00    -2600.00
04822             252.00    -3400.00
04823            -248.00    -3600.00
04824            -248.00    -2800.00
04825             252.00    -4200.00
04826             252.00    -4000.00
04827            -248.00    -3600.00
04828            -248.00    -4400.00
04829             116.00    -4200.00
04830             252.00    -4200.00
04831             230.00    -5200.00
04832            -248.00    -4800.00
04833            -248.00    -5000.00
04834             252.00    -5400.00
04835             252.00    -5200.00
04836            -100.00    -5600.00
04837            -248.00    -5600.00
04838             -44.00    -5800.00
04839             252.00    -6200.00
04840             138.00    -6200.00
04841            -248.00    -6400.00
04842            -208.00    -6600.00
04843             174.00    -6600.00
04844             232.00    -7000.00
04845             -84.00    -7000.00
04846            -180.00    -7400.00
04847             -50.00    -7400.00
04848             164.00    -7400.00
04849             126.00    -7800.00
04850            -140.00    -7800.00
04851            -100.00    -8000.00
04852              78.00    -8200.00
04853              84.00    -8200.00
04854             -12.00    -8400.00
04855             -84.00    -8400.00
04856             -12.00    -8600.00
04857              86.00    -8800.00
04858              36.00    -8800.00
04859             -68.00    -9000.00
04860             -52.00    -9000.00
04861              56.00    -9200.00
04862              54.00    -9200.00
04863             -12.00    -9200.00
04864             -42.00    -9600.00
04865             -14.00    -9600.00
04866              36.00    -9800.00
04867              22.00    -9800.00
04868             -26.00    -9800.00
04869             -16.00   -10000.00
04870              22.00   -10000.00
04871              16.00   -10200.00
04872             -10.00   -10400.00
04873             -14.00   -10400.00
04874               0.00   -10400.00
04875              20.00   -10600.00
04876              16.00   -10600.00
04877             -10.00   -10600.00
04878             -10.00   -10600.00
04879               6.00   -10800.00
04880               6.00   -11000.00
04881              -2.00   -10800.00
04882               0.00   -10800.00
04883               6.00   -11000.00
04884               6.00   -11000.00
04885              -4.00   -11200.00
04886             -10.00   -11200.00
04887              -4.00   -11400.00
04888              12.00   -11200.00
04889               8.00   -11200.00
04890              -2.00   -11400.00
04891              -2.00   -11400.00
04892              -4.00   -11400.00
04893              -4.00   -11400.00
04894               6.00   -11400.00
04895               4.00   -11400.00
04896               0.00   -11600.00
04897               4.00   -11400.00
04898              -4.00   -11600.00
04899              -8.00   -11400.00
04900              -2.00   -11600.00
04901               4.00   -11600.00
04902               4.00   -11400.00
04903               2.00   -11600.00
04904              -4.00   -11600.00
04905              -4.00   -11600.00
04906              -4.00   -11600.00
04907               0.00   -11400.00
04908              -2.00   -11400.00
04909               4.00   -11400.00
04910               4.00   -11400.00
04911              -8.00   -11400.00
04912              -4.00   -11400.00
04913              -2.00   -11400.00
04914              -4.00   -11200.00
04915               0.00   -11200.00
04916               4.00   -11200.00
04917              -2.00   -11200.00
04918              -4.00   -11200.00
04919              -8.00   -11000.00
04920              -4.00   -10800.00
04921              -2.00   -10800.00
04922               0.00   -10800.00
04923              -2.00   -10800.00
04924              -4.00   -10600.00
04925              -6.00   -10600.00
04926              -4.00   -10400.00
04927              -4.00   -10400.00
04928               0.00   -10400.00
04929               4.00   -10400.00
04930              -2.00   -10400.00
04931              -4.00   -10000.00
04932              -6.00   -10000.00
04933              -6.00   -10000.00
04934              -4.00    -9800.00
04935              -2.00    -9600.00
04936               0.00    -9600.00
04937              -2.00    -9600.00
04938              -4.00    -9600.00
04939              -4.00    -9200.00
04940              -4.00    -9200.00
04941              -2.00    -9200.00
04942               0.00    -9000.00
04943               0.00    -8800.00
04944              -4.00    -8600.00
04945              -4.00    -8600.00
04946              -4.00    -8400.00
04947              -4.00    -8400.00
04948              -2.00    -8200.00
04949              -2.00    -8000.00
04950               0.00    -8000.00
04951              -4.00    -7800.00
04952              -4.00    -7600.00
04953              -4.00    -7600.00
04954              -2.00    -7400.00
04955               0.00    -7200.00
04956              -2.00    -7200.00
04957              -2.00    -6800.00
04958              -4.00    -6600.00
04959              -8.00    -6800.00
04960              -6.00    -6600.00
04961              -4.00    -6400.00
04962              -2.00    -6200.00
04963              -4.00    -5800.00
04964              -4.00    -5800.00
04965              -8.00    -5800.00
04966             -10.00    -5400.00
04967              -4.00    -5200.00
04968              -4.00    -5200.00
04969              -2.00    -5000.00
04970              -4.00    -4800.00
04971              -8.00    -4800.00
04972              -8.00    -4400.00
04973              -8.00    -4400.00
04974              -4.00    -4200.00
04975              -2.00    -4000.00
04976              -4.00    -3800.00
04977              -4.00    -3600.00
04978             -10.00    -3600.00
04979              -8.00    -3400.00
04980              -8.00    -3200.00
04981              -6.00    -2800.00
04982              -4.00    -2800.00
04983              -4.00    -2600.00
04984              -8.00    -2400.00
04985              -8.00    -2400.00
04986             -10.00    -2000.00
04987              -8.00    -1800.00
04988              -8.00    -1600.00
04989              -4.00    -1400.00
04990              -4.00    -1200.00
04991              -6.00    -1000.00
04992              -8.00     -800.00
04993              -8.00     -600.00
04994              -6.00     -600.00
04995              -4.00     -200.00
04996              -2.00        0.00
04997              -2.00     -200.00
04998              -2.00      200.00
04999              18.00      400.00
05000              20.00      600.00
